%OpenBCI Raw EEG Data
%
%Sample Rate = 250.0 Hz
%First Column = SampleIndex
%Last Column = Timestamp 
%Other Columns = EEG data in microvolts followed by Accel Data (in G) interleaved with Aux Data
0, -18273.60, -15985.41, 29705.87, 17464.67, -74351.82, -40924.43, -102698.17, -36212.39, 0.000, -0.008, 0.504, 14:38:21.952
1, -18271.46, -15859.93, 29714.79, 17481.10, -74321.88, -40885.41, -102535.23, -35681.18, 0.000, 0.000, 0.000, 14:38:22.035
2, -18256.37, -15806.53, 29727.10, 17502.02, -74301.80, -40865.58, -101982.05, -34924.73, 0.000, 0.000, 0.000, 14:38:22.036
3, -18255.92, -15970.03, 29721.98, 17477.41, -74349.92, -40911.80, -102129.07, -35413.01, 0.000, 0.000, 0.000, 14:38:22.037
4, -18277.60, -15990.64, 29695.81, 17456.24, -74361.81, -40938.49, -102702.71, -36175.27, 0.000, 0.000, 0.000, 14:38:22.038
5, -18269.20, -15858.14, 29705.58, 17475.58, -74328.69, -40908.79, -102679.15, -35827.30, 0.000, 0.000, 0.000, 14:38:22.039
6, -18257.40, -15806.91, 29721.47, 17498.82, -74305.55, -40878.70, -102141.26, -35009.63, 0.000, 0.000, 0.000, 14:38:22.039
7, -18246.47, -15929.57, 29736.71, 17484.34, -74334.86, -40885.50, -102127.38, -35268.55, 0.002, -0.016, 0.754, 14:38:22.040
8, -18257.75, -16041.38, 29713.25, 17464.33, -74358.04, -40918.60, -102761.72, -36156.23, 0.000, 0.000, 0.000, 14:38:22.040
9, -18257.26, -15890.95, 29716.02, 17479.18, -74328.84, -40896.79, -102873.50, -35980.59, 0.000, 0.000, 0.000, 14:38:22.041
10, -18241.84, -15803.51, 29741.43, 17510.74, -74285.66, -40851.43, -102351.45, -35112.82, 0.000, 0.000, 0.000, 14:38:22.041
11, -18241.79, -15867.55, 29740.87, 17494.96, -74320.15, -40876.94, -102149.19, -35093.38, 0.000, 0.000, 0.000, 14:38:22.041
12, -18253.82, -16057.09, 29722.75, 17465.72, -74354.84, -40915.09, -102800.23, -36061.63, 0.000, 0.000, 0.000, 14:38:22.042
13, -18265.22, -15903.42, 29712.75, 17474.46, -74331.02, -40894.44, -103019.97, -36074.55, 0.000, 0.000, 0.000, 14:38:22.042
14, -18247.27, -15832.17, 29741.61, 17505.33, -74291.52, -40848.06, -102592.63, -35272.41, 0.000, 0.000, 0.000, 14:38:22.043
15, -18243.83, -15837.93, 29744.31, 17507.34, -74302.76, -40862.32, -102228.34, -34977.33, 0.000, 0.000, 0.000, 14:38:22.043
16, -18252.05, -16047.05, 29728.67, 17471.13, -74350.80, -40913.05, -102791.96, -35929.00, 0.000, 0.000, 0.000, 14:38:22.044
17, -18257.60, -15941.96, 29714.59, 17483.36, -74327.91, -40915.78, -103162.93, -36165.59, 0.002, -0.022, 0.882, 14:38:22.045
18, -18249.80, -15836.41, 29728.67, 17507.47, -74297.35, -40872.20, -102803.25, -35416.76, 0.000, 0.000, 0.000, 14:38:22.045
19, -18234.78, -15808.54, 29747.91, 17522.92, -74288.08, -40848.75, -102331.49, -34910.14, 0.000, 0.000, 0.000, 14:38:22.046
20, -18242.62, -16014.04, 29733.52, 17482.21, -74345.07, -40910.38, -102763.51, -35750.59, 0.000, 0.000, 0.000, 14:38:22.046
21, -18246.55, -15958.99, 29723.64, 17485.61, -74333.36, -40911.45, -103250.66, -36210.27, 0.000, 0.000, 0.000, 14:38:22.047
22, -18236.05, -15855.41, 29742.21, 17511.23, -74296.81, -40865.29, -103028.93, -35594.57, 0.000, 0.000, 0.000, 14:38:22.047
23, -18229.88, -15800.09, 29752.41, 17525.24, -74286.49, -40851.45, -102489.90, -34918.27, 0.000, 0.000, 0.000, 14:38:22.048
24, -18251.56, -15986.39, 29730.19, 17474.95, -74356.00, -40913.88, -102775.10, -35596.92, 0.000, 0.000, 0.000, 14:38:22.048
25, -18258.83, -15997.84, 29720.13, 17465.94, -74352.90, -40919.65, -103351.53, -36239.35, 0.000, 0.000, 0.000, 14:38:22.049
26, -18253.57, -15874.59, 29732.24, 17482.66, -74322.43, -40887.60, -103248.83, -35768.00, 0.000, 0.000, 0.000, 14:38:22.049
27, -18233.75, -15821.06, 29754.69, 17511.00, -74294.11, -40857.76, -102696.41, -34974.13, 0.002, -0.018, 0.952, 14:38:22.050
28, -18240.41, -15963.28, 29738.57, 17483.85, -74346.77, -40907.02, -102800.72, -35408.00, 0.000, 0.000, 0.000, 14:38:22.050
29, -18260.99, -16006.13, 29710.92, 17456.82, -74370.30, -40943.28, -103388.77, -36199.32, 0.000, 0.000, 0.000, 14:38:22.051
30, -18245.46, -15888.94, 29731.42, 17477.03, -74333.16, -40898.19, -103425.18, -35905.42, 0.000, 0.000, 0.000, 14:38:22.051
31, -18230.26, -15841.19, 29753.03, 17507.63, -74296.95, -40852.37, -102908.75, -35071.70, 0.000, 0.000, 0.000, 14:38:22.051
32, -18223.91, -15927.05, 29757.23, 17494.53, -74328.94, -40878.84, -102833.69, -35244.88, 0.000, 0.000, 0.000, 14:38:22.052
33, -18243.09, -16049.18, 29738.21, 17466.41, -74358.71, -40925.42, -103475.25, -36158.73, 0.000, 0.000, 0.000, 14:38:22.053
34, -18244.77, -15893.65, 29737.70, 17483.40, -74328.69, -40899.00, -103614.70, -36032.60, 0.000, 0.000, 0.000, 14:38:22.053
35, -18237.57, -15831.99, 29748.27, 17503.29, -74298.67, -40861.91, -103142.81, -35203.93, 0.000, 0.000, 0.000, 14:38:22.054
36, -18233.26, -15882.68, 29751.15, 17494.80, -74323.10, -40883.84, -102896.01, -35099.46, 0.002, -0.022, 0.986, 14:38:22.054
37, -18243.22, -16060.98, 29734.08, 17465.16, -74362.15, -40933.93, -103510.57, -36058.55, 0.000, 0.000, 0.000, 14:38:22.055
38, -18250.91, -15921.28, 29730.39, 17477.41, -74333.23, -40910.11, -103775.59, -36133.67, 0.000, 0.000, 0.000, 14:38:22.055
39, -18234.35, -15866.41, 29757.57, 17502.55, -74294.45, -40858.65, -103406.79, -35375.70, 0.000, 0.000, 0.000, 14:38:22.056
40, -18222.35, -15884.74, 29769.19, 17514.13, -74291.36, -40850.81, -103003.90, -34967.27, 0.000, 0.000, 0.000, 14:38:22.056
41, -18232.85, -16042.25, 29753.43, 17488.63, -74325.88, -40888.87, -103253.32, -35539.52, 0.000, 0.000, 0.000, 14:38:22.057
42, -18243.43, -15799.93, 29736.76, 17499.61, -74306.49, -40894.10, -103350.75, -35653.73, 0.000, 0.000, 0.000, 14:38:22.057
43, -18244.79, -15639.16, 29738.28, 17502.29, -74303.03, -40884.94, -103155.73, -35358.31, 0.000, 0.000, 0.000, 14:38:22.058
44, -18234.64, -15723.94, 29749.95, 17497.06, -74315.50, -40881.47, -102992.68, -35234.71, 0.000, 0.000, 0.000, 14:38:22.058
45, -18237.66, -16059.08, 29746.01, 17470.12, -74348.41, -40912.05, -103309.02, -35721.26, 0.000, 0.000, 0.000, 14:38:22.059
46, -18242.96, -15923.56, 29733.00, 17492.25, -74321.90, -40915.43, -103501.49, -35859.04, 0.004, -0.022, 0.994, 14:38:22.060
47, -18239.76, -15724.61, 29745.32, 17503.23, -74303.99, -40886.39, -103370.80, -35557.76, 0.000, 0.000, 0.000, 14:38:22.060
48, -18236.03, -15718.06, 29751.58, 17506.02, -74305.20, -40878.37, -103140.53, -35297.18, 0.000, 0.000, 0.000, 14:38:22.061
49, -18231.45, -16043.41, 29760.38, 17479.76, -74343.22, -40896.32, -103374.40, -35678.50, 0.000, 0.000, 0.000, 14:38:22.061
50, -18235.22, -16005.44, 29746.68, 17496.52, -74317.67, -40893.01, -103637.46, -35901.19, 0.000, 0.000, 0.000, 14:38:22.062
51, -18241.17, -15750.49, 29741.07, 17506.73, -74304.20, -40881.79, -103536.79, -35639.72, 0.000, 0.000, 0.000, 14:38:22.062
52, -18235.25, -15726.02, 29747.76, 17507.99, -74302.52, -40874.52, -103322.19, -35346.96, 0.000, 0.000, 0.000, 14:38:22.063
53, -18229.54, -16015.02, 29756.29, 17482.73, -74337.63, -40898.91, -103472.08, -35616.90, 0.000, 0.000, 0.000, 14:38:22.063
54, -18232.36, -16080.22, 29747.35, 17492.99, -74323.05, -40909.91, -103780.55, -35921.49, 0.000, 0.000, 0.000, 14:38:22.064
55, -18230.04, -15804.90, 29753.46, 17516.93, -74296.32, -40885.16, -103734.98, -35708.99, 0.000, 0.000, 0.000, 14:38:22.064
56, -18235.27, -15735.16, 29756.72, 17513.66, -74298.56, -40872.20, -103524.00, -35396.91, 0.004, -0.016, 1.004, 14:38:22.065
57, -18230.80, -15980.22, 29768.37, 17486.98, -74332.89, -40883.86, -103596.38, -35565.29, 0.000, 0.000, 0.000, 14:38:22.066
58, -18232.59, -16150.45, 29766.46, 17484.63, -74327.23, -40889.74, -103948.64, -35940.69, 0.000, 0.000, 0.000, 14:38:22.066
59, -18239.49, -15849.42, 29756.45, 17505.06, -74300.75, -40876.89, -103935.14, -35768.13, 0.000, 0.000, 0.000, 14:38:22.067
60, -18238.64, -15755.77, 29758.20, 17507.56, -74299.81, -40870.07, -103753.95, -35451.00, 0.000, 0.000, 0.000, 14:38:22.067
61, -18242.24, -15923.00, 29753.10, 17481.37, -74335.41, -40895.18, -103724.48, -35490.55, 0.000, 0.000, 0.000, 14:38:22.068
62, -18237.95, -16170.35, 29755.83, 17475.85, -74340.49, -40901.21, -104061.16, -35897.95, 0.000, 0.000, 0.000, 14:38:22.068
63, -18243.69, -15902.28, 29746.28, 17502.18, -74305.55, -40886.30, -104105.86, -35808.41, 0.000, 0.000, 0.000, 14:38:22.069
64, -18246.87, -15777.49, 29749.16, 17501.84, -74304.28, -40883.06, -103953.65, -35508.63, 0.000, 0.000, 0.000, 14:38:22.069
65, -18242.06, -15919.36, 29757.39, 17484.70, -74329.88, -40893.66, -103901.95, -35461.29, 0.000, 0.000, 0.000, 14:38:22.069
66, -18239.96, -16244.00, 29758.37, 17466.28, -74353.66, -40912.07, -104260.31, -35888.25, 0.004, -0.014, 1.004, 14:38:22.071
67, -18247.61, -16029.35, 29742.33, 17483.45, -74323.68, -40904.63, -104383.49, -35886.29, 0.000, 0.000, 0.000, 14:38:22.071
68, -18250.00, -15823.38, 29741.30, 17491.13, -74316.89, -40889.86, -104223.21, -35577.43, 0.000, 0.000, 0.000, 14:38:22.071
69, -18244.97, -15876.53, 29744.43, 17478.68, -74336.89, -40892.22, -104081.32, -35429.05, 0.000, 0.000, 0.000, 14:38:22.072
70, -18237.82, -16218.78, 29753.59, 17459.57, -74358.48, -40905.73, -104380.95, -35818.42, 0.000, 0.000, 0.000, 14:38:22.072
71, -18249.77, -16087.58, 29736.74, 17482.37, -74325.96, -40898.98, -104569.44, -35911.81, 0.000, 0.000, 0.000, 14:38:22.072
72, -18246.71, -15849.26, 29742.82, 17495.98, -74312.09, -40881.56, -104451.40, -35630.89, 0.000, 0.000, 0.000, 14:38:22.073
73, -18246.20, -15853.87, 29739.60, 17489.50, -74323.39, -40890.21, -104284.83, -35408.83, 0.000, 0.000, 0.000, 14:38:22.073
74, -18245.21, -16173.43, 29742.53, 17458.39, -74361.70, -40911.67, -104498.45, -35729.62, 0.000, 0.000, 0.000, 14:38:22.074
75, -18246.91, -16147.17, 29737.16, 17478.48, -74334.12, -40908.72, -104746.33, -35919.23, 0.000, 0.000, 0.000, 14:38:22.074
76, -18256.88, -15891.80, 29733.25, 17485.12, -74322.07, -40899.15, -104682.76, -35682.41, 0.002, -0.020, 1.006, 14:38:22.074
77, -18255.27, -15842.31, 29740.43, 17486.04, -74321.16, -40892.36, -104489.46, -35413.25, 0.000, 0.000, 0.000, 14:38:22.075
78, -18253.64, -16118.49, 29748.96, 17460.31, -74355.73, -40912.07, -104616.15, -35636.88, 0.000, 0.000, 0.000, 14:38:22.075
79, -18252.86, -16186.48, 29743.38, 17467.98, -74339.44, -40908.56, -104893.02, -35915.00, 0.000, 0.000, 0.000, 14:38:22.075
80, -18254.13, -15902.82, 29743.76, 17486.10, -74317.02, -40890.88, -104861.98, -35727.50, 0.000, 0.000, 0.000, 14:38:22.076
81, -18257.15, -15825.30, 29746.93, 17483.06, -74323.15, -40892.63, -104681.53, -35445.93, 0.000, 0.000, 0.000, 14:38:22.076
82, -18253.57, -16071.51, 29758.53, 17456.18, -74355.60, -40903.60, -104758.11, -35589.45, 0.000, 0.000, 0.000, 14:38:22.077
83, -18250.73, -16240.13, 29755.85, 17462.95, -74345.12, -40902.44, -105065.38, -35924.30, 0.000, 0.000, 0.000, 14:38:22.077
84, -18246.64, -15954.72, 29754.78, 17492.23, -74312.26, -40885.83, -105083.91, -35789.84, 0.000, 0.000, 0.000, 14:38:22.077
85, -18245.13, -15832.99, 29759.65, 17500.03, -74307.86, -40881.63, -104909.74, -35482.01, 0.000, 0.000, 0.000, 14:38:22.078
86, -18243.52, -16012.68, 29767.65, 17476.74, -74338.95, -40891.15, -104910.41, -35517.32, 0.004, -0.016, 1.014, 14:38:22.078
87, -18246.67, -16272.23, 29760.07, 17462.01, -74349.09, -40903.49, -105236.46, -35895.85, 0.000, 0.000, 0.000, 14:38:22.079
88, -18250.51, -16019.65, 29750.51, 17485.88, -74321.20, -40896.56, -105316.77, -35837.36, 0.000, 0.000, 0.000, 14:38:22.079
89, -18253.64, -15848.75, 29749.52, 17490.08, -74318.36, -40893.54, -105150.80, -35527.36, 0.000, 0.000, 0.000, 14:38:22.079
90, -18251.07, -15956.40, 29753.35, 17473.12, -74341.70, -40900.32, -105075.37, -35469.29, 0.000, 0.000, 0.000, 14:38:22.080
91, -18239.38, -16275.98, 29766.13, 17461.90, -74352.05, -40901.25, -105388.52, -35854.19, 0.000, 0.000, 0.000, 14:38:22.080
92, -18240.50, -16074.12, 29755.29, 17490.15, -74315.44, -40894.95, -105519.25, -35869.88, 0.000, 0.000, 0.000, 14:38:22.080
93, -18237.26, -15862.85, 29761.21, 17502.29, -74305.11, -40885.86, -105375.46, -35573.98, 0.000, 0.000, 0.000, 14:38:22.081
94, -18236.59, -15931.25, 29768.79, 17489.44, -74323.55, -40889.39, -105270.09, -35443.43, 0.000, 0.000, 0.000, 14:38:22.081
95, -18241.32, -16263.44, 29763.38, 17459.33, -74360.16, -40916.50, -105529.91, -35795.63, 0.000, 0.000, 0.000, 14:38:22.082
96, -18247.34, -16135.92, 29746.91, 17479.53, -74330.66, -40910.60, -105700.86, -35897.21, 0.002, -0.022, 1.008, 14:38:22.082
97, -18250.87, -15887.31, 29745.70, 17486.28, -74318.70, -40891.51, -105586.69, -35632.46, 0.000, 0.000, 0.000, 14:38:22.082
98, -18249.44, -15893.61, 29751.33, 17478.57, -74328.40, -40887.80, -105441.49, -35432.59, 0.000, 0.000, 0.000, 14:38:22.083
99, -18248.63, -16222.02, 29751.29, 17451.04, -74366.51, -40914.80, -105653.45, -35731.99, 0.000, 0.000, 0.000, 14:38:22.083
100, -18238.73, -16210.20, 29752.07, 17476.98, -74332.42, -40897.52, -105898.41, -35928.24, 0.000, 0.000, 0.000, 14:38:22.083
101, -18238.82, -15925.84, 29750.71, 17498.15, -74310.30, -40884.40, -105826.09, -35691.00, 0.000, 0.000, 0.000, 14:38:22.084
102, -18236.10, -15886.55, 29757.41, 17497.66, -74316.02, -40887.53, -105664.38, -35448.86, 0.000, 0.000, 0.000, 14:38:22.084
103, -18236.23, -16181.10, 29765.68, 17467.42, -74351.09, -40902.84, -105813.52, -35668.22, 0.000, 0.000, 0.000, 14:38:22.084
104, -18233.77, -16294.87, 29761.32, 17474.19, -74335.28, -40903.24, -106126.62, -35953.47, 0.000, 0.000, 0.000, 14:38:22.085
105, -18241.39, -15988.81, 29749.52, 17492.54, -74313.78, -40896.23, -106094.95, -35755.93, 0.000, 0.000, 0.000, 14:38:22.085
106, -18240.86, -15890.06, 29753.10, 17495.22, -74315.81, -40893.66, -105908.55, -35465.45, 0.002, -0.016, 1.004, 14:38:22.086
107, -18239.45, -16115.61, 29761.91, 17469.61, -74348.02, -40907.60, -105960.85, -35583.28, 0.000, 0.000, 0.000, 14:38:22.086
108, -18245.86, -16307.63, 29746.95, 17459.71, -74352.43, -40918.13, -106261.28, -35921.02, 0.000, 0.000, 0.000, 14:38:22.087
109, -18246.35, -16018.09, 29739.98, 17482.33, -74319.59, -40904.32, -106270.63, -35792.38, 0.000, 0.000, 0.000, 14:38:22.087
110, -18254.49, -15881.14, 29741.52, 17481.39, -74323.03, -40897.90, -106082.94, -35499.17, 0.000, 0.000, 0.000, 14:38:22.087
111, -18244.66, -16049.13, 29760.03, 17468.18, -74344.07, -40892.70, -106057.66, -35516.27, 0.000, 0.000, 0.000, 14:38:22.088
112, -18235.49, -16338.95, 29766.49, 17462.59, -74349.48, -40904.74, -106382.19, -35890.29, 0.000, 0.000, 0.000, 14:38:22.088
113, -18241.48, -16099.47, 29752.88, 17484.74, -74320.46, -40906.20, -106465.91, -35844.35, 0.000, 0.000, 0.000, 14:38:22.088
114, -18242.67, -15927.32, 29759.38, 17486.44, -74316.46, -40887.08, -106312.05, -35553.91, 0.000, 0.000, 0.000, 14:38:22.089
115, -18238.17, -16014.55, 29767.27, 17479.33, -74331.98, -40888.07, -106215.51, -35471.48, 0.000, 0.000, 0.000, 14:38:22.089
116, -18239.29, -16342.97, 29763.22, 17453.38, -74363.71, -40913.57, -106506.33, -35853.29, 0.004, -0.020, 1.008, 14:38:22.089
117, -18241.44, -16161.18, 29752.32, 17479.04, -74328.45, -40899.13, -106637.24, -35878.35, 0.000, 0.000, 0.000, 14:38:22.089
118, -18253.82, -15943.86, 29749.68, 17476.78, -74329.54, -40894.30, -106496.47, -35594.55, 0.000, 0.000, 0.000, 14:38:22.090
119, -18258.16, -15981.99, 29753.93, 17462.54, -74346.17, -40903.31, -106359.81, -35440.79, 0.000, 0.000, 0.000, 14:38:22.090
120, -18247.34, -16321.47, 29770.13, 17439.86, -74372.14, -40912.88, -106600.31, -35771.60, 0.000, 0.000, 0.000, 14:38:22.441
121, -18250.29, -16211.70, 29749.50, 17463.44, -74343.62, -40914.80, -106765.49, -35891.71, 0.000, 0.000, 0.000, 14:38:22.441
122, -18250.02, -15946.09, 29748.74, 17476.00, -74333.20, -40899.04, -106638.36, -35639.88, 0.000, 0.000, 0.000, 14:38:22.442
123, -18241.64, -15938.63, 29760.45, 17478.62, -74337.90, -40891.98, -106473.13, -35438.04, 0.000, 0.000, 0.000, 14:38:22.442
124, -18246.96, -16240.69, 29760.43, 17441.27, -74382.38, -40919.23, -106624.68, -35713.26, 0.000, 0.000, 0.000, 14:38:22.442
125, -18249.66, -16244.13, 29749.12, 17451.26, -74364.27, -40926.36, -106838.41, -35930.29, 0.000, 0.000, 0.000, 14:38:22.442
126, -18243.74, -15958.63, 29758.84, 17477.81, -74333.79, -40899.18, -106754.30, -35707.94, 0.008, -0.026, 1.010, 14:38:22.443
127, -18242.24, -15928.77, 29766.55, 17478.84, -74336.18, -40891.58, -106603.53, -35464.86, 0.000, 0.000, 0.000, 14:38:22.443
128, -18241.41, -16200.70, 29773.91, 17448.91, -74368.74, -40903.76, -106709.33, -35642.36, 0.000, 0.000, 0.000, 14:38:22.444
129, -18249.37, -16329.33, 29760.27, 17449.45, -74357.34, -40910.22, -106999.90, -35930.20, 0.000, 0.000, 0.000, 14:38:22.444
130, -18258.63, -16003.60, 29746.75, 17469.25, -74331.35, -40901.01, -106942.79, -35744.73, 0.000, 0.000, 0.000, 14:38:22.444
131, -18256.59, -15895.42, 29753.21, 17469.61, -74334.32, -40896.49, -106748.89, -35466.25, 0.000, 0.000, 0.000, 14:38:22.445
132, -18247.88, -16107.20, 29768.99, 17455.15, -74357.68, -40897.07, -106778.15, -35559.39, 0.000, 0.000, 0.000, 14:38:22.445
133, -18242.22, -16319.70, 29767.43, 17456.80, -74353.43, -40903.96, -107074.77, -35900.84, 0.000, 0.000, 0.000, 14:38:22.445
134, -18248.14, -16023.05, 29753.72, 17477.07, -74328.63, -40899.04, -107084.61, -35787.09, 0.000, 0.000, 0.000, 14:38:22.445
135, -18251.72, -15884.47, 29758.31, 17475.67, -74329.72, -40887.17, -106917.46, -35507.96, 0.000, 0.000, 0.000, 14:38:22.446
136, -18254.02, -16037.91, 29760.47, 17450.86, -74360.85, -40906.73, -106881.77, -35510.75, 0.000, -0.022, 1.012, 14:38:22.446
137, -18242.04, -16333.96, 29768.12, 17449.96, -74364.66, -40917.73, -107192.39, -35879.45, 0.000, 0.000, 0.000, 14:38:22.446
138, -18253.06, -16063.75, 29755.42, 17470.53, -74332.65, -40899.54, -107231.98, -35835.48, 0.000, 0.000, 0.000, 14:38:22.446
139, -18255.27, -15877.76, 29759.96, 17471.78, -74332.60, -40887.24, -107069.19, -35563.01, 0.000, 0.000, 0.000, 14:38:22.447
140, -18242.78, -15966.72, 29776.88, 17467.96, -74341.48, -40890.41, -106972.85, -35472.82, 0.000, 0.000, 0.000, 14:38:22.447
141, -18240.99, -16286.22, 29778.96, 17451.15, -74359.20, -40905.68, -107224.38, -35818.45, 0.000, 0.000, 0.000, 14:38:22.448
142, -18245.93, -16106.89, 29757.44, 17475.29, -74330.10, -40906.80, -107322.81, -35859.75, 0.000, 0.000, 0.000, 14:38:22.448
143, -18241.95, -15884.89, 29765.06, 17486.80, -74315.86, -40887.48, -107179.41, -35593.92, 0.000, 0.000, 0.000, 14:38:22.448
144, -18233.26, -15912.59, 29779.09, 17483.96, -74323.19, -40883.78, -107023.77, -35432.36, 0.000, 0.000, 0.000, 14:38:22.448
145, -18229.08, -16249.70, 29783.59, 17459.37, -74355.94, -40908.59, -107234.03, -35758.92, 0.004, -0.022, 1.010, 14:38:22.449
146, -18238.67, -16166.41, 29764.28, 17475.89, -74333.63, -40916.83, -107400.33, -35900.90, 0.000, 0.000, 0.000, 14:38:22.449
147, -18248.50, -15876.02, 29755.67, 17484.85, -74323.59, -40910.42, -107259.45, -35642.47, 0.000, 0.000, 0.000, 14:38:22.449
148, -18250.29, -15842.02, 29764.56, 17479.87, -74329.25, -40895.73, -107066.41, -35416.20, 0.000, 0.000, 0.000, 14:38:22.449
149, -18241.95, -16137.56, 29782.04, 17455.24, -74356.09, -40896.00, -107195.37, -35663.97, 0.000, 0.000, 0.000, 14:38:22.450
150, -18225.95, -16154.88, 29786.22, 17486.02, -74318.81, -40885.54, -107401.52, -35875.42, 0.000, 0.000, 0.000, 14:38:22.450
151, -18226.48, -15848.30, 29781.82, 17503.29, -74300.30, -40883.53, -107309.65, -35663.86, 0.000, 0.000, 0.000, 14:38:22.450
152, -18227.71, -15782.99, 29784.99, 17500.39, -74305.38, -40880.78, -107120.15, -35416.25, 0.000, 0.000, 0.000, 14:38:22.450
153, -18230.69, -16039.95, 29789.91, 17465.18, -74345.92, -40901.63, -107183.80, -35590.21, 0.000, 0.000, 0.000, 14:38:22.451
154, -18243.07, -16205.53, 29771.85, 17456.91, -74349.63, -40918.04, -107472.39, -35910.49, 0.000, 0.000, 0.000, 14:38:22.451
155, -18249.51, -15890.88, 29764.16, 17474.68, -74325.47, -40891.22, -107420.67, -35748.04, 0.004, -0.022, 1.014, 14:38:22.451
156, -18251.36, -15770.88, 29771.47, 17471.42, -74329.00, -40884.09, -107222.97, -35476.53, 0.000, 0.000, 0.000, 14:38:22.452
157, -18240.34, -15966.10, 29796.39, 17455.82, -74349.37, -40890.04, -107220.04, -35545.08, 0.000, 0.000, 0.000, 14:38:22.452
158, -18250.58, -16202.64, 29785.35, 17442.94, -74357.63, -40911.43, -107500.73, -35891.89, 0.000, 0.000, 0.000, 14:38:22.453
159, -18254.49, -15900.72, 29779.52, 17467.51, -74325.07, -40893.97, -107477.27, -35781.52, 0.000, 0.000, 0.000, 14:38:22.453
160, -18233.03, -15744.48, 29797.76, 17489.17, -74308.06, -40875.44, -107278.18, -35491.75, 0.000, 0.000, 0.000, 14:38:22.453
161, -18229.99, -15884.24, 29805.71, 17471.73, -74332.29, -40879.82, -107197.09, -35469.69, 0.000, 0.000, 0.000, 14:38:22.454
162, -18227.33, -16188.29, 29809.96, 17459.53, -74344.89, -40889.81, -107452.19, -35832.46, 0.000, 0.000, 0.000, 14:38:22.455
163, -18234.93, -15948.64, 29792.95, 17481.59, -74317.23, -40887.17, -107481.58, -35805.84, 0.000, 0.000, 0.000, 14:38:22.455
164, -18231.38, -15747.88, 29801.11, 17493.75, -74307.86, -40873.83, -107284.77, -35514.17, 0.000, 0.000, 0.000, 14:38:22.455
165, -18229.12, -15808.87, 29810.30, 17483.15, -74322.66, -40878.03, -107126.86, -35393.74, 0.000, -0.020, 1.016, 14:38:22.456
166, -18235.76, -16126.76, 29809.94, 17449.80, -74352.05, -40897.86, -107321.16, -35738.36, 0.000, 0.000, 0.000, 14:38:22.456
167, -18230.95, -15957.38, 29799.81, 17482.80, -74316.28, -40891.33, -107385.63, -35803.58, 0.000, 0.000, 0.000, 14:38:22.457
168, -18226.42, -15712.09, 29812.71, 17496.21, -74303.59, -40867.41, -107196.46, -35543.07, 0.000, 0.000, 0.000, 14:38:22.457
169, -18211.89, -15737.73, 29836.11, 17498.24, -74305.04, -40853.42, -107011.23, -35363.01, 0.000, 0.000, 0.000, 14:38:22.457
170, -18210.84, -16077.61, 29841.77, 17471.15, -74337.48, -40869.80, -107186.16, -35662.86, 0.000, 0.000, 0.000, 14:38:22.458
171, -18213.25, -16013.26, 29829.52, 17491.27, -74309.98, -40874.61, -107329.52, -35807.54, 0.000, 0.000, 0.000, 14:38:22.458
172, -18227.60, -15736.16, 29819.30, 17494.17, -74310.80, -40876.20, -107197.33, -35581.50, 0.000, 0.000, 0.000, 14:38:22.458
173, -18233.86, -15694.08, 29825.36, 17488.96, -74316.73, -40873.32, -106987.94, -35347.88, 0.000, 0.000, 0.000, 14:38:22.459
174, -18223.53, -15976.00, 29845.30, 17465.03, -74345.50, -40881.88, -107087.70, -35569.94, 0.000, 0.000, 0.000, 14:38:22.459
175, -18225.84, -16040.75, 29830.99, 17471.35, -74335.55, -40895.33, -107315.05, -35825.46, 0.004, -0.024, 1.014, 14:38:22.459
176, -18223.33, -15734.22, 29836.20, 17496.03, -74305.31, -40873.49, -107226.70, -35624.93, 0.000, 0.000, 0.000, 14:38:22.460
177, -18219.85, -15651.85, 29846.62, 17497.06, -74305.04, -40862.81, -107023.41, -35358.83, 0.000, 0.000, 0.000, 14:38:22.460
178, -18221.34, -15913.41, 29854.29, 17466.75, -74342.81, -40876.89, -107085.28, -35513.32, 0.000, 0.000, 0.000, 14:38:22.460
179, -18224.40, -16087.02, 29845.30, 17466.14, -74338.86, -40882.77, -107349.37, -35826.43, 0.000, 0.000, 0.000, 14:38:22.461
180, -18230.80, -15783.39, 29840.94, 17490.75, -74311.86, -40879.46, -107302.14, -35670.68, 0.000, 0.000, 0.000, 14:38:22.461
181, -18221.23, -15657.87, 29859.16, 17502.71, -74301.29, -40860.69, -107092.10, -35380.26, 0.000, 0.000, 0.000, 14:38:22.463
182, -18218.77, -15844.57, 29866.04, 17481.25, -74334.95, -40868.15, -107061.59, -35432.81, 0.000, 0.000, 0.000, 14:38:22.464
183, -18217.05, -16123.47, 29867.38, 17470.55, -74343.87, -40878.14, -107363.45, -35814.33, 0.000, 0.000, 0.000, 14:38:22.464
184, -18218.55, -15855.90, 29857.62, 17498.87, -74309.71, -40865.38, -107390.45, -35738.32, 0.000, 0.000, 0.000, 14:38:22.464
185, -18216.60, -15693.70, 29860.66, 17502.82, -74306.90, -40859.01, -107210.61, -35445.48, 0.004, -0.026, 1.012, 14:38:22.465
186, -18216.09, -15823.40, 29871.50, 17485.39, -74326.84, -40864.29, -107141.59, -35395.59, 0.000, 0.000, 0.000, 14:38:22.465
187, -18214.79, -16120.23, 29871.18, 17470.44, -74342.55, -40876.87, -107393.89, -35754.65, 0.000, 0.000, 0.000, 14:38:22.466
188, -18218.50, -15902.93, 29854.53, 17493.46, -74315.66, -40874.23, -107465.44, -35773.23, 0.000, 0.000, 0.000, 14:38:22.467
189, -18211.73, -15688.06, 29860.52, 17507.54, -74305.11, -40859.19, -107287.50, -35491.86, 0.000, 0.000, 0.000, 14:38:22.467
190, -18198.23, -15755.36, 29884.13, 17510.11, -74308.28, -40846.43, -107150.48, -35361.93, 0.000, 0.000, 0.000, 14:38:22.468
191, -18200.82, -16093.05, 29886.45, 17484.96, -74336.60, -40866.72, -107373.44, -35710.55, 0.000, 0.000, 0.000, 14:38:22.468
192, -18206.14, -15968.64, 29867.16, 17501.55, -74313.89, -40873.88, -107499.64, -35811.25, 0.000, 0.000, 0.000, 14:38:22.468
193, -18200.47, -15717.50, 29873.31, 17518.31, -74296.10, -40859.88, -107346.06, -35549.96, 0.000, 0.000, 0.000, 14:38:22.469
194, -18202.68, -15732.74, 29875.03, 17507.70, -74309.51, -40860.57, -107170.98, -35373.67, 0.000, 0.000, 0.000, 14:38:22.469
195, -18197.56, -16076.89, 29886.99, 17481.48, -74340.55, -40865.94, -107352.25, -35685.18, 0.002, -0.028, 1.016, 14:38:22.470
196, -18209.94, -16045.29, 29864.66, 17492.36, -74320.84, -40870.95, -107524.16, -35872.02, 0.000, 0.000, 0.000, 14:38:22.470
197, -18209.65, -15743.81, 29861.04, 17507.32, -74302.94, -40856.46, -107383.90, -35639.36, 0.000, 0.000, 0.000, 14:38:22.470
198, -18205.47, -15679.66, 29865.26, 17506.96, -74306.18, -40854.83, -107146.52, -35385.36, 0.000, 0.000, 0.000, 14:38:22.471
199, -18198.99, -15981.14, 29871.85, 17474.64, -74344.05, -40882.43, -107241.07, -35611.22, 0.000, 0.000, 0.000, 14:38:22.471
200, -18197.36, -16066.37, 29861.95, 17483.78, -74328.17, -40889.12, -107459.07, -35881.07, 0.000, 0.000, 0.000, 14:38:22.472
201, -18203.42, -15744.86, 29854.96, 17503.94, -74308.22, -40880.67, -107341.81, -35689.10, 0.000, 0.000, 0.000, 14:38:22.472
202, -18206.75, -15651.38, 29861.10, 17504.70, -74309.13, -40860.57, -107097.35, -35418.93, 0.000, 0.000, 0.000, 14:38:22.473
203, -18203.97, -15853.47, 29868.70, 17483.06, -74336.24, -40865.85, -107043.44, -35522.15, 0.000, 0.000, 0.000, 14:38:22.473
204, -18203.91, -16045.80, 29860.48, 17477.14, -74338.30, -40880.67, -107246.37, -35849.83, 0.000, 0.000, 0.000, 14:38:22.473
205, -18206.86, -15759.77, 29852.68, 17502.89, -74308.46, -40868.35, -107161.66, -35735.50, 0.006, -0.026, 1.018, 14:38:22.474
206, -18204.18, -15628.32, 29860.23, 17508.32, -74305.96, -40858.38, -106890.93, -35458.67, 0.000, 0.000, 0.000, 14:38:22.474
207, -18204.80, -15803.31, 29867.03, 17483.47, -74337.90, -40873.52, -106778.23, -35497.77, 0.000, 0.000, 0.000, 14:38:22.474
208, -18193.87, -16060.44, 29875.07, 17482.15, -74335.20, -40881.25, -106967.82, -35855.80, 0.000, 0.000, 0.000, 14:38:22.474
209, -18184.42, -15773.67, 29873.62, 17520.17, -74294.16, -40864.66, -106920.95, -35790.11, 0.000, 0.000, 0.000, 14:38:22.475
210, -18193.36, -15586.72, 29871.90, 17516.86, -74296.62, -40857.11, -106701.50, -35510.59, 0.000, 0.000, 0.000, 14:38:22.475
211, -18203.57, -15684.46, 29867.52, 17489.19, -74330.66, -40867.48, -106584.45, -35461.36, 0.000, 0.000, 0.000, 14:38:22.478
212, -18195.71, -16014.98, 29874.80, 17475.78, -74346.73, -40872.00, -106849.09, -35850.54, 0.000, 0.000, 0.000, 14:38:22.479
213, -18213.70, -15835.14, 29848.07, 17488.09, -74323.50, -40873.83, -106964.45, -35912.59, 0.000, 0.000, 0.000, 14:38:22.479
214, -18203.84, -15591.39, 29859.49, 17508.30, -74303.50, -40858.47, -106790.02, -35637.89, 0.000, 0.000, 0.000, 14:38:22.480
215, -18182.34, -15612.78, 29881.69, 17519.36, -74300.86, -40854.74, -106632.05, -35479.59, 0.006, -0.028, 1.010, 14:38:22.480
216, -18195.41, -15943.99, 29873.62, 17482.44, -74342.21, -40880.96, -106854.23, -35813.89, 0.000, 0.000, 0.000, 14:38:22.480
217, -18210.77, -15832.52, 29854.80, 17490.06, -74320.98, -40872.89, -107002.38, -35937.63, 0.000, 0.000, 0.000, 14:38:22.481
218, -18214.62, -15580.84, 29854.91, 17495.60, -74312.95, -40863.73, -106888.45, -35706.33, 0.000, 0.000, 0.000, 14:38:22.482
219, -18210.44, -15587.28, 29863.94, 17489.86, -74321.70, -40864.48, -106746.54, -35520.96, 0.000, 0.000, 0.000, 14:38:22.483
220, -18201.31, -15906.89, 29877.17, 17465.16, -74348.80, -40881.94, -106928.93, -35792.23, 0.000, 0.000, 0.000, 14:38:22.484
221, -18208.91, -15914.64, 29859.90, 17473.99, -74331.48, -40892.61, -107162.95, -36006.09, 0.000, 0.000, 0.000, 14:38:22.484
222, -18209.70, -15611.55, 29862.00, 17495.67, -74310.48, -40869.45, -107078.64, -35790.24, 0.000, 0.000, 0.000, 14:38:22.485
223, -18201.45, -15558.69, 29874.98, 17503.83, -74310.41, -40864.35, -106924.13, -35552.62, 0.000, 0.000, 0.000, 14:38:22.485
224, -18190.27, -15859.99, 29897.96, 17480.36, -74338.79, -40869.47, -107090.42, -35776.29, 0.000, 0.000, 0.000, 14:38:22.485
225, -18187.59, -15980.87, 29890.96, 17489.64, -74324.35, -40868.89, -107403.41, -36073.01, 0.008, -0.024, 1.014, 14:38:22.486
226, -18186.43, -15646.98, 29886.07, 17518.04, -74293.93, -40851.48, -107372.45, -35893.79, 0.000, 0.000, 0.000, 14:38:22.486
227, -18191.17, -15541.14, 29882.98, 17511.83, -74303.61, -40858.18, -107226.77, -35635.52, 0.000, 0.000, 0.000, 14:38:22.487
228, -18190.32, -15746.18, 29887.66, 17486.13, -74336.89, -40875.35, -107282.42, -35729.44, 0.000, 0.000, 0.000, 14:38:22.488
229, -18191.01, -15969.56, 29886.31, 17477.12, -74337.14, -40882.10, -107624.56, -36073.28, 0.000, 0.000, 0.000, 14:38:22.488
230, -18192.11, -15671.59, 29877.78, 17507.79, -74305.27, -40872.53, -107672.75, -35961.96, 0.000, 0.000, 0.000, 14:38:22.488
231, -18189.31, -15515.08, 29885.67, 17516.37, -74303.03, -40860.84, -107532.48, -35683.35, 0.000, 0.000, 0.000, 14:38:22.489
232, -18186.45, -15656.03, 29893.74, 17500.05, -74329.05, -40869.63, -107531.89, -35691.11, 0.000, 0.000, 0.000, 14:38:22.489
233, -18177.42, -15948.21, 29897.49, 17489.52, -74338.08, -40882.03, -107881.72, -36058.66, 0.000, 0.000, 0.000, 14:38:22.489
234, -18181.18, -15701.79, 29882.45, 17516.35, -74305.91, -40874.37, -108007.36, -36025.00, 0.000, 0.000, 0.000, 14:38:22.490
235, -18194.45, -15524.22, 29873.20, 17509.89, -74314.77, -40876.22, -107927.27, -35765.85, 0.002, -0.020, 1.012, 14:38:22.490
236, -18193.94, -15597.11, 29880.10, 17497.73, -74330.21, -40877.09, -107889.09, -35682.35, 0.000, 0.000, 0.000, 14:38:22.490
237, -18190.61, -15909.43, 29882.85, 17478.35, -74352.61, -40895.82, -108210.87, -36033.89, 0.000, 0.000, 0.000, 14:38:22.491
238, -18198.37, -15733.93, 29866.76, 17499.13, -74326.79, -40894.77, -108411.08, -36095.70, 0.000, 0.000, 0.000, 14:38:22.491
239, -18215.78, -15488.62, 29850.93, 17497.26, -74326.41, -40893.63, -108337.47, -35829.27, 0.000, 0.000, 0.000, 14:38:22.491
240, -18207.78, -15490.16, 29862.73, 17497.12, -74331.59, -40882.93, -108244.84, -35654.29, 0.000, 0.000, 0.000, 14:38:22.910
241, -18210.46, -15809.01, 29864.46, 17465.99, -74364.03, -40899.33, -108523.39, -35961.30, 0.000, 0.000, 0.000, 14:38:22.910
242, -18222.84, -15712.47, 29840.00, 17482.10, -74340.13, -40906.93, -108753.05, -36078.75, 0.000, 0.000, 0.000, 14:38:22.911
243, -18224.34, -15436.18, 29834.12, 17498.42, -74331.35, -40904.85, -108703.44, -35841.47, 0.000, 0.000, 0.000, 14:38:22.911
244, -18219.60, -15394.56, 29841.50, 17499.02, -74339.48, -40905.52, -108578.98, -35634.85, 0.000, 0.000, 0.000, 14:38:22.911
245, -18219.87, -15702.48, 29851.60, 17464.60, -74377.13, -40919.67, -108791.03, -35895.78, 0.010, -0.024, 0.998, 14:38:22.911
246, -18227.24, -15715.31, 29834.46, 17482.51, -74349.52, -40916.03, -109056.28, -36089.06, 0.000, 0.000, 0.000, 14:38:22.912
247, -18242.38, -15381.08, 29821.21, 17492.72, -74334.84, -40903.09, -108972.98, -35862.68, 0.000, 0.000, 0.000, 14:38:22.912
248, -18233.48, -15307.48, 29839.71, 17499.40, -74331.59, -40889.07, -108816.70, -35625.68, 0.000, 0.000, 0.000, 14:38:22.912
249, -18226.62, -15569.00, 29855.07, 17476.85, -74360.92, -40901.43, -108947.31, -35808.07, 0.000, 0.000, 0.000, 14:38:22.912
250, -18235.76, -15692.24, 29843.73, 17474.24, -74348.11, -40901.61, -109261.34, -36086.49, 0.000, 0.000, 0.000, 14:38:22.913
251, -18251.85, -15368.59, 29828.85, 17483.11, -74332.20, -40895.33, -109277.92, -35936.42, 0.000, 0.000, 0.000, 14:38:22.913
252, -18260.73, -15233.18, 29833.30, 17482.88, -74334.50, -40883.44, -109148.95, -35682.68, 0.000, 0.000, 0.000, 14:38:22.913
253, -18257.73, -15403.82, 29852.72, 17461.52, -74361.70, -40887.69, -109219.83, -35763.82, 0.000, 0.000, 0.000, 14:38:22.913
254, -18257.96, -15606.46, 29849.08, 17455.28, -74367.91, -40905.97, -109580.59, -36108.06, 0.006, -0.022, 1.000, 14:38:22.914
255, -18270.45, -15281.64, 29829.77, 17477.25, -74341.36, -40900.59, -109657.52, -36019.03, 0.000, 0.000, 0.000, 14:38:22.914
0, -18279.90, -15090.80, 29828.83, 17469.61, -74347.73, -40896.63, -109544.94, -35766.68, 0.000, 0.000, 0.000, 14:38:22.914
1, -18275.57, -15179.58, 29843.87, 17454.28, -74369.37, -40902.24, -109546.66, -35757.52, 0.000, 0.000, 0.000, 14:38:22.914
2, -18275.01, -15438.21, 29849.10, 17439.28, -74380.75, -40912.41, -109897.82, -36114.18, 0.000, 0.000, 0.000, 14:38:22.915
3, -18288.33, -15162.57, 29829.59, 17459.42, -74351.42, -40909.26, -110025.81, -36087.56, 0.000, 0.000, 0.000, 14:38:22.915
4, -18303.66, -14926.58, 29817.67, 17459.55, -74352.77, -40911.11, -109920.65, -35827.48, 0.000, 0.000, 0.000, 14:38:22.915
5, -18307.13, -14958.99, 29823.57, 17443.14, -74374.35, -40910.64, -109851.78, -35741.29, 0.000, 0.000, 0.000, 14:38:22.916
6, -18297.16, -15271.20, 29840.56, 17423.47, -74391.05, -40910.80, -110174.85, -36091.72, 0.000, 0.000, 0.000, 14:38:22.916
7, -18307.71, -15071.31, 29821.96, 17443.93, -74361.99, -40908.21, -110346.02, -36143.51, 0.000, 0.000, 0.000, 14:38:22.916
8, -18318.86, -14783.55, 29815.01, 17449.11, -74362.66, -40910.98, -110242.47, -35899.23, 0.006, -0.028, 1.004, 14:38:22.916
9, -18331.47, -14743.12, 29809.20, 17435.84, -74380.70, -40920.63, -110105.27, -35737.44, 0.000, 0.000, 0.000, 14:38:22.917
10, -18325.35, -15019.28, 29819.93, 17410.96, -74408.09, -40934.67, -110305.66, -36014.79, 0.000, 0.000, 0.000, 14:38:22.917
11, -18336.37, -14923.01, 29797.53, 17421.69, -74387.81, -40950.92, -110488.20, -36140.98, 0.000, 0.000, 0.000, 14:38:22.917
12, -18346.49, -14601.01, 29796.28, 17429.91, -74375.02, -40919.02, -110359.03, -35898.51, 0.000, 0.000, 0.000, 14:38:22.917
13, -18330.58, -14526.02, 29818.41, 17444.66, -74366.62, -40898.73, -110155.96, -35669.16, 0.000, 0.000, 0.000, 14:38:22.918
14, -18323.40, -14770.55, 29828.71, 17424.70, -74393.60, -40925.80, -110233.93, -35857.16, 0.000, 0.000, 0.000, 14:38:22.918
15, -18355.45, -14788.72, 29790.90, 17408.43, -74400.88, -40955.37, -110397.30, -36049.85, 0.000, 0.000, 0.000, 14:38:22.932
16, -18346.18, -14471.75, 29800.22, 17431.14, -74376.70, -40926.51, -110273.55, -35851.37, 0.000, 0.000, 0.000, 14:38:22.932
17, -18342.04, -14382.79, 29811.26, 17436.55, -74372.61, -40910.82, -110036.83, -35609.93, 0.000, 0.000, 0.000, 14:38:22.933
18, -18341.84, -14578.90, 29822.41, 17412.92, -74396.70, -40918.71, -109976.88, -35702.02, 0.004, -0.020, 1.010, 14:38:22.933
19, -18338.85, -14733.82, 29816.89, 17414.69, -74388.84, -40933.60, -110151.20, -35958.86, 0.000, 0.000, 0.000, 14:38:22.933
20, -18346.96, -14415.04, 29802.59, 17431.86, -74368.14, -40939.21, -110015.87, -35786.24, 0.000, 0.000, 0.000, 14:38:22.933
21, -18339.25, -14281.69, 29817.20, 17440.60, -74364.63, -40920.93, -109725.24, -35506.73, 0.000, 0.000, 0.000, 14:38:22.934
22, -18332.12, -14470.21, 29837.88, 17421.04, -74389.11, -40919.27, -109621.49, -35543.61, 0.000, 0.000, 0.000, 14:38:22.934
23, -18326.40, -14725.31, 29843.71, 17414.65, -74386.96, -40923.18, -109810.05, -35844.48, 0.000, 0.000, 0.000, 14:38:22.934
24, -18336.03, -14428.48, 29822.37, 17438.63, -74359.80, -40931.21, -109715.34, -35732.68, 0.000, 0.000, 0.000, 14:38:22.934
25, -18335.43, -14256.72, 29830.55, 17440.26, -74361.99, -40919.96, -109441.76, -35474.18, 0.000, 0.000, 0.000, 14:38:22.934
26, -18319.76, -14379.52, 29854.42, 17431.37, -74373.70, -40910.51, -109279.84, -35437.55, 0.000, 0.000, 0.000, 14:38:22.935
27, -18319.82, -14693.75, 29858.53, 17412.16, -74387.54, -40920.37, -109448.04, -35760.93, 0.000, 0.000, 0.000, 14:38:22.935
28, -18345.24, -14521.35, 29830.26, 17414.29, -74371.94, -40915.07, -109455.77, -35765.36, 0.002, -0.026, 1.012, 14:38:22.935
29, -18349.33, -14360.79, 29836.92, 17416.48, -74370.11, -40907.02, -109236.97, -35529.46, 0.000, 0.000, 0.000, 14:38:22.936
30, -18333.57, -14439.25, 29851.00, 17421.22, -74377.46, -40908.36, -109028.77, -35412.72, 0.000, 0.000, 0.000, 14:38:22.936
31, -18326.17, -14792.32, 29866.27, 17399.74, -74397.80, -40918.27, -109164.82, -35704.50, 0.000, 0.000, 0.000, 14:38:22.937
32, -18348.30, -14718.82, 29836.67, 17400.23, -74385.20, -40927.14, -109227.65, -35777.05, 0.000, 0.000, 0.000, 14:38:22.937
33, -18359.37, -14511.96, 29822.43, 17404.81, -74386.98, -40927.96, -109006.15, -35549.11, 0.000, 0.000, 0.000, 14:38:22.937
34, -18349.15, -14558.34, 29837.25, 17406.69, -74390.31, -40925.06, -108768.81, -35405.48, 0.000, 0.000, 0.000, 14:38:22.938
35, -18361.76, -14930.88, 29831.15, 17367.17, -74422.03, -40944.82, -108879.19, -35682.03, 0.000, 0.000, 0.000, 14:38:22.938
36, -18391.62, -14940.51, 29788.46, 17358.43, -74425.65, -40983.46, -108971.23, -35840.26, 0.000, 0.000, 0.000, 14:38:22.938
37, -18346.29, -14679.55, 29841.19, 17410.18, -74375.74, -40933.02, -108769.27, -35621.06, 0.000, 0.000, 0.000, 14:38:22.939
38, -18347.96, -14666.97, 29840.05, 17413.01, -74382.63, -40919.02, -108506.59, -35434.98, 0.002, -0.022, 1.000, 14:38:22.939
39, -18326.57, -14973.88, 29866.94, 17400.52, -74397.73, -40913.77, -108524.00, -35628.86, 0.000, 0.000, 0.000, 14:38:22.939
40, -18349.64, -15096.93, 29843.33, 17389.28, -74393.78, -40932.91, -108674.78, -35843.19, 0.000, 0.000, 0.000, 14:38:22.940
41, -18356.73, -14821.78, 29835.60, 17400.16, -74377.87, -40911.54, -108499.61, -35655.43, 0.000, 0.000, 0.000, 14:38:22.940
42, -18352.64, -14785.88, 29843.38, 17404.41, -74382.11, -40913.77, -108233.00, -35438.89, 0.000, 0.000, 0.000, 14:38:22.941
43, -18346.42, -15072.97, 29851.00, 17387.67, -74406.25, -40924.72, -108195.72, -35557.18, 0.000, 0.000, 0.000, 14:38:22.941
44, -18347.25, -15289.33, 29840.85, 17385.05, -74399.52, -40921.15, -108341.63, -35817.08, 0.000, 0.000, 0.000, 14:38:22.941
45, -18344.84, -15030.74, 29836.94, 17410.98, -74373.77, -40911.45, -108212.19, -35681.90, 0.000, 0.000, 0.000, 14:38:22.949
46, -18352.32, -14953.25, 29831.71, 17403.09, -74387.14, -40923.27, -107957.76, -35465.58, 0.000, 0.000, 0.000, 14:38:22.950
47, -18342.82, -15168.43, 29844.34, 17382.86, -74411.05, -40929.35, -107878.05, -35524.30, 0.000, 0.000, 0.000, 14:38:22.950
48, -18337.48, -15452.65, 29845.75, 17374.99, -74410.07, -40933.73, -108078.93, -35834.14, 0.002, -0.018, 1.008, 14:38:22.950
49, -18345.95, -15196.12, 29826.52, 17395.47, -74384.23, -40929.93, -108025.59, -35761.09, 0.000, 0.000, 0.000, 14:38:22.951
50, -18352.97, -15038.43, 29822.21, 17392.41, -74396.30, -40930.94, -107789.52, -35551.68, 0.000, 0.000, 0.000, 14:38:22.951
51, -18343.29, -15140.98, 29835.31, 17383.58, -74407.81, -40925.86, -107633.30, -35523.67, 0.000, 0.000, 0.000, 14:38:22.951
52, -18327.80, -15462.36, 29849.48, 17371.44, -74413.38, -40927.03, -107829.30, -35841.78, 0.000, 0.000, 0.000, 14:38:22.951
53, -18328.29, -15272.54, 29833.97, 17395.38, -74378.16, -40921.08, -107857.09, -35838.50, 0.000, 0.000, 0.000, 14:38:22.952
54, -18321.43, -15064.65, 29838.71, 17415.23, -74367.42, -40915.34, -107652.52, -35600.67, 0.000, 0.000, 0.000, 14:38:22.952
55, -18316.25, -15104.46, 29851.96, 17412.86, -74377.73, -40908.81, -107443.29, -35485.83, 0.000, 0.000, 0.000, 14:38:22.952
56, -18314.46, -15446.49, 29860.28, 17382.26, -74403.84, -40919.70, -107590.88, -35780.05, 0.000, 0.000, 0.000, 14:38:22.952
57, -18315.00, -15361.95, 29847.15, 17401.30, -74378.13, -40922.11, -107668.93, -35849.76, 0.000, 0.000, 0.000, 14:38:22.953
58, -18303.26, -15133.78, 29857.32, 17428.35, -74359.65, -40908.25, -107507.84, -35617.30, 0.002, -0.018, 1.012, 14:38:22.953
59, -18302.21, -15128.87, 29860.32, 17425.33, -74368.14, -40914.29, -107299.12, -35456.35, 0.000, 0.000, 0.000, 14:38:22.954
60, -18291.71, -15441.79, 29869.44, 17398.24, -74396.46, -40933.98, -107407.66, -35706.78, 0.000, 0.000, 0.000, 14:38:22.954
61, -18291.08, -15431.02, 29861.64, 17409.57, -74368.59, -40916.97, -107547.52, -35849.71, 0.000, 0.000, 0.000, 14:38:22.955
62, -18288.98, -15126.97, 29852.92, 17433.87, -74346.19, -40901.25, -107393.63, -35625.98, 0.000, 0.000, 0.000, 14:38:22.955
63, -18291.86, -15077.99, 29854.13, 17431.79, -74357.44, -40892.49, -107181.66, -35438.82, 0.000, 0.000, 0.000, 14:38:22.955
64, -18290.57, -15346.42, 29865.66, 17403.02, -74390.36, -40897.30, -107224.84, -35611.69, 0.000, 0.000, 0.000, 14:38:22.955
65, -18303.55, -15439.78, 29848.12, 17398.13, -74381.28, -40910.38, -107372.73, -35806.04, 0.000, 0.000, 0.000, 14:38:22.956
66, -18309.61, -15091.83, 29838.91, 17420.28, -74356.43, -40906.24, -107152.25, -35574.05, 0.000, 0.000, 0.000, 14:38:22.956
67, -18310.88, -15022.63, 29841.14, 17417.57, -74366.64, -40919.47, -106868.58, -35337.79, 0.000, 0.000, 0.000, 14:38:22.956
68, -18312.43, -15257.21, 29841.66, 17387.06, -74404.26, -40947.70, -106775.55, -35418.82, 0.002, -0.018, 1.008, 14:38:22.956
69, -18312.13, -15487.28, 29845.37, 17371.53, -74404.73, -40925.35, -106926.45, -35693.97, 0.000, 0.000, 0.000, 14:38:22.957
70, -18314.21, -15209.83, 29842.39, 17397.05, -74369.91, -40906.06, -106797.55, -35560.37, 0.000, 0.000, 0.000, 14:38:22.957
71, -18291.64, -15051.80, 29860.52, 17430.70, -74350.39, -40892.18, -106468.26, -35294.90, 0.000, 0.000, 0.000, 14:38:22.957
72, -18312.05, -15217.02, 29844.96, 17392.36, -74397.35, -40930.85, -106280.28, -35307.39, 0.000, 0.000, 0.000, 14:38:22.957
73, -18318.82, -15540.76, 29840.99, 17361.47, -74415.57, -40936.01, -106390.21, -35613.37, 0.000, 0.000, 0.000, 14:38:22.957
74, -18315.73, -15336.00, 29836.22, 17391.51, -74373.70, -40917.23, -106259.27, -35547.74, 0.000, 0.000, 0.000, 14:38:22.958
75, -18296.36, -15194.80, 29855.63, 17419.63, -74360.12, -40903.07, -105942.33, -35325.61, 0.000, 0.000, 0.000, 14:38:22.961
76, -18289.58, -15308.24, 29862.22, 17415.29, -74382.13, -40918.71, -105698.05, -35289.54, 0.000, 0.000, 0.000, 14:38:22.962
77, -18283.70, -15651.54, 29874.58, 17394.66, -74398.80, -40916.90, -105802.63, -35610.24, 0.000, 0.000, 0.000, 14:38:22.962
78, -18295.95, -15480.06, 29855.07, 17411.88, -74369.15, -40914.89, -105747.69, -35620.57, 0.002, -0.020, 1.012, 14:38:22.962
79, -18286.54, -15281.60, 29860.66, 17427.43, -74360.05, -40909.82, -105480.88, -35401.79, 0.000, 0.000, 0.000, 14:38:22.962
80, -18276.35, -15329.88, 29875.32, 17428.01, -74364.61, -40905.79, -105233.62, -35295.28, 0.000, 0.000, 0.000, 14:38:22.963
81, -18269.33, -15693.63, 29886.85, 17400.74, -74393.80, -40912.23, -105353.31, -35606.26, 0.000, 0.000, 0.000, 14:38:22.963
82, -18279.64, -15644.97, 29867.76, 17409.75, -74374.00, -40914.35, -105417.35, -35723.43, 0.000, 0.000, 0.000, 14:38:22.963
83, -18276.48, -15386.05, 29868.54, 17430.38, -74355.16, -40899.09, -105190.57, -35517.34, 0.000, 0.000, 0.000, 14:38:22.963
84, -18271.08, -15372.43, 29875.18, 17432.86, -74360.61, -40905.17, -104945.68, -35368.62, 0.000, 0.000, 0.000, 14:38:22.963
85, -18276.15, -15697.70, 29880.32, 17391.82, -74401.45, -40918.22, -105033.19, -35614.15, 0.000, 0.000, 0.000, 14:38:22.964
86, -18282.16, -15754.09, 29865.95, 17389.90, -74387.14, -40913.55, -105189.05, -35792.47, 0.000, 0.000, 0.000, 14:38:22.964
87, -18283.55, -15458.71, 29862.47, 17412.59, -74363.47, -40905.50, -105017.23, -35578.14, 0.000, 0.000, 0.000, 14:38:22.964
88, -18282.05, -15405.09, 29864.79, 17416.43, -74370.53, -40910.82, -104764.30, -35385.92, 0.004, -0.016, 1.004, 14:38:22.964
89, -18282.47, -15655.43, 29867.83, 17390.73, -74405.16, -40938.25, -104744.16, -35537.20, 0.000, 0.000, 0.000, 14:38:22.964
90, -18285.71, -15792.60, 29853.50, 17385.32, -74399.48, -40948.51, -104885.85, -35753.07, 0.000, 0.000, 0.000, 14:38:22.965
91, -18265.58, -15500.89, 29873.57, 17425.84, -74351.65, -40889.63, -104745.91, -35576.93, 0.000, 0.000, 0.000, 14:38:22.965
92, -18275.95, -15425.63, 29870.11, 17418.45, -74362.24, -40894.95, -104502.88, -35367.70, 0.000, 0.000, 0.000, 14:38:22.965
93, -18280.04, -15645.59, 29872.79, 17392.52, -74399.92, -40914.53, -104428.98, -35451.86, 0.000, 0.000, 0.000, 14:38:22.965
94, -18281.42, -15884.31, 29867.05, 17380.98, -74405.36, -40928.81, -104584.16, -35738.11, 0.000, 0.000, 0.000, 14:38:22.966
95, -18274.85, -15605.05, 29867.07, 17415.96, -74365.08, -40905.84, -104482.02, -35643.19, 0.000, 0.000, 0.000, 14:38:22.966
96, -18272.88, -15505.56, 29871.07, 17418.00, -74369.26, -40911.02, -104281.66, -35463.10, 0.000, 0.000, 0.000, 14:38:22.966
97, -18260.73, -15642.78, 29886.81, 17407.16, -74383.16, -40922.40, -104165.98, -35450.51, 0.000, 0.000, 0.000, 14:38:22.966
98, -18247.54, -15945.94, 29906.21, 17393.68, -74383.52, -40912.50, -104375.29, -35739.41, -0.002, -0.016, 1.012, 14:38:22.966
99, -18256.59, -15740.12, 29885.55, 17411.92, -74357.50, -40909.91, -104399.45, -35703.42, 0.000, 0.000, 0.000, 14:38:22.967
100, -18261.29, -15572.57, 29885.09, 17417.44, -74361.95, -40904.27, -104225.31, -35497.05, 0.000, 0.000, 0.000, 14:38:22.967
101, -18256.48, -15656.14, 29899.50, 17407.27, -74377.70, -40902.02, -104098.59, -35439.72, 0.000, 0.000, 0.000, 14:38:22.967
102, -18248.97, -15960.73, 29907.24, 17389.81, -74390.11, -40914.24, -104279.20, -35723.77, 0.000, 0.000, 0.000, 14:38:22.968
103, -18261.31, -15759.01, 29885.64, 17407.56, -74364.34, -40919.61, -104288.90, -35720.81, 0.000, 0.000, 0.000, 14:38:22.968
104, -18261.51, -15516.29, 29887.16, 17416.72, -74362.98, -40913.88, -104083.60, -35504.54, 0.000, 0.000, 0.000, 14:38:23.398
105, -18243.20, -15544.27, 29911.44, 17424.82, -74361.44, -40896.43, -103900.63, -35395.62, 0.000, 0.000, 0.000, 14:38:23.398
106, -18257.20, -15856.08, 29902.41, 17379.78, -74401.94, -40930.87, -104030.91, -35667.46, 0.000, 0.000, 0.000, 14:38:23.399
107, -18251.23, -15772.58, 29897.11, 17403.92, -74366.06, -40915.11, -104112.32, -35760.33, 0.002, -0.022, 1.014, 14:38:23.399
108, -18252.46, -15509.67, 29894.76, 17416.88, -74358.91, -40910.11, -103956.33, -35575.55, 0.000, 0.000, 0.000, 14:38:23.399
109, -18252.63, -15502.70, 29905.38, 17411.70, -74368.52, -40904.77, -103772.46, -35429.91, 0.000, 0.000, 0.000, 14:38:23.399
110, -18248.81, -15783.66, 29920.11, 17380.74, -74399.43, -40912.34, -103842.87, -35624.30, 0.000, 0.000, 0.000, 14:38:23.399
111, -18240.88, -15846.47, 29921.14, 17393.95, -74378.45, -40901.59, -104010.87, -35798.98, 0.000, 0.000, 0.000, 14:38:23.400
112, -18265.46, -15566.69, 29897.87, 17397.61, -74372.09, -40906.35, -103882.95, -35620.99, 0.000, 0.000, 0.000, 14:38:23.400
113, -18252.48, -15539.76, 29913.00, 17408.34, -74375.96, -40899.76, -103686.19, -35446.94, 0.000, 0.000, 0.000, 14:38:23.400
114, -18241.19, -15822.11, 29931.20, 17393.14, -74395.72, -40908.18, -103735.38, -35592.85, 0.000, 0.000, 0.000, 14:38:23.400
115, -18238.93, -15982.44, 29922.68, 17392.12, -74387.54, -40924.52, -103923.23, -35816.19, 0.000, 0.000, 0.000, 14:38:23.401
116, -18236.34, -15696.15, 29919.04, 17417.69, -74357.55, -40908.32, -103828.14, -35664.87, 0.000, 0.000, 0.000, 14:38:23.401
117, -18216.54, -15618.66, 29949.50, 17438.14, -74343.46, -40876.29, -103636.03, -35463.01, 0.002, -0.018, 1.018, 14:38:23.401
118, -18209.61, -15845.60, 29965.91, 17424.12, -74360.74, -40876.73, -103644.41, -35535.88, 0.000, 0.000, 0.000, 14:38:23.401
119, -18215.82, -16094.24, 29957.21, 17409.77, -74367.38, -40889.92, -103888.83, -35813.57, 0.000, 0.000, 0.000, 14:38:23.401
120, -18222.91, -15828.07, 29943.83, 17431.16, -74340.52, -40882.84, -103889.95, -35719.65, 0.000, 0.000, 0.000, 14:38:23.402
121, -18217.90, -15691.15, 29951.36, 17435.95, -74343.82, -40882.55, -103750.73, -35518.64, 0.000, 0.000, 0.000, 14:38:23.402
122, -18218.24, -15789.58, 29953.28, 17420.55, -74363.78, -40892.71, -103683.19, -35505.90, 0.000, 0.000, 0.000, 14:38:23.402
123, -18221.95, -16075.62, 29953.01, 17393.68, -74381.88, -40909.10, -103935.50, -35813.98, 0.000, 0.000, 0.000, 14:38:23.403
124, -18240.97, -15841.51, 29930.17, 17400.63, -74363.00, -40905.79, -103983.91, -35788.20, 0.000, 0.000, 0.000, 14:38:23.403
125, -18226.21, -15637.41, 29946.22, 17425.31, -74350.55, -40888.80, -103824.52, -35563.05, 0.000, 0.000, 0.000, 14:38:23.403
126, -18214.19, -15727.56, 29961.57, 17420.97, -74363.45, -40896.76, -103744.21, -35499.46, 0.000, 0.000, 0.000, 14:38:23.403
127, -18215.93, -16069.56, 29963.21, 17388.96, -74387.74, -40918.71, -103988.91, -35795.63, 0.004, -0.024, 1.014, 14:38:23.403
128, -18220.16, -15937.55, 29948.45, 17409.42, -74352.72, -40900.90, -104101.13, -35830.16, 0.000, 0.000, 0.000, 14:38:23.404
129, -18207.08, -15715.89, 29958.80, 17436.62, -74336.71, -40891.55, -103972.82, -35611.60, 0.000, 0.000, 0.000, 14:38:23.404
130, -18199.48, -15768.13, 29973.80, 17438.21, -74340.47, -40875.33, -103851.21, -35497.59, 0.000, 0.000, 0.000, 14:38:23.404
131, -18202.88, -16100.45, 29984.93, 17402.08, -74372.92, -40877.41, -104020.23, -35755.77, 0.000, 0.000, 0.000, 14:38:23.404
132, -18199.84, -16075.53, 29974.09, 17421.08, -74348.18, -40873.79, -104188.67, -35880.72, 0.000, 0.000, 0.000, 14:38:23.405
133, -18176.62, -15836.70, 29991.86, 17454.77, -74318.05, -40854.94, -104132.23, -35693.39, 0.000, 0.000, 0.000, 14:38:23.405
134, -18174.25, -15842.74, 29996.46, 17456.67, -74322.23, -40855.79, -104040.30, -35543.12, 0.000, 0.000, 0.000, 14:38:23.405
135, -18184.02, -16122.40, 29991.99, 17420.05, -74359.49, -40883.26, -104179.84, -35735.45, 0.000, 0.000, 0.000, 14:38:23.406
136, -18186.23, -16198.35, 29978.38, 17422.63, -74347.58, -40888.92, -104419.70, -35924.28, 0.000, 0.000, 0.000, 14:38:23.406
137, -18175.48, -15932.97, 29983.59, 17447.99, -74322.61, -40859.88, -104406.98, -35769.63, 0.002, -0.022, 1.006, 14:38:23.408
138, -18159.32, -15893.27, 30007.24, 17461.49, -74315.46, -40838.94, -104315.30, -35597.52, 0.000, 0.000, 0.000, 14:38:23.408
139, -18169.89, -16136.71, 30008.11, 17428.28, -74351.82, -40855.99, -104416.98, -35722.54, 0.000, 0.000, 0.000, 14:38:23.409
140, -18192.11, -16325.13, 29980.24, 17405.30, -74365.81, -40885.83, -104704.30, -35969.88, 0.000, 0.000, 0.000, 14:38:23.409
141, -18196.62, -16055.17, 29970.40, 17427.81, -74340.71, -40885.23, -104718.61, -35829.93, 0.000, 0.000, 0.000, 14:38:23.409
142, -18191.71, -15961.13, 29983.03, 17435.86, -74336.87, -40869.52, -104597.48, -35607.91, 0.000, 0.000, 0.000, 14:38:23.409
143, -18174.70, -16155.59, 30000.04, 17429.04, -74355.31, -40876.45, -104630.84, -35648.08, 0.000, 0.000, 0.000, 14:38:23.409
144, -18180.73, -16413.98, 29984.39, 17414.87, -74368.12, -40899.33, -104912.55, -35917.98, 0.000, 0.000, 0.000, 14:38:23.410
145, -18190.38, -16182.19, 29973.15, 17427.97, -74344.67, -40887.51, -104977.38, -35845.76, 0.000, 0.000, 0.000, 14:38:23.410
146, -18164.59, -16056.55, 30005.94, 17456.35, -74317.98, -40849.44, -104888.71, -35632.79, 0.000, 0.000, 0.000, 14:38:23.410
147, -18165.40, -16166.66, 30009.65, 17442.74, -74336.67, -40857.56, -104857.39, -35603.36, 0.000, -0.020, 1.010, 14:38:23.410
148, -18174.52, -16465.50, 30004.89, 17408.52, -74362.62, -40881.32, -105123.73, -35890.17, 0.000, 0.000, 0.000, 14:38:23.410
149, -18158.80, -16293.97, 30009.85, 17443.59, -74319.19, -40858.85, -105256.38, -35875.11, 0.000, 0.000, 0.000, 14:38:23.411
150, -18161.66, -16114.58, 30008.20, 17454.83, -74313.65, -40851.72, -105176.27, -35663.17, 0.000, 0.000, 0.000, 14:38:23.411
151, -18159.14, -16188.23, 30013.79, 17447.06, -74330.32, -40857.63, -105119.27, -35588.02, 0.000, 0.000, 0.000, 14:38:23.411
152, -18158.62, -16503.37, 30020.22, 17423.83, -74350.77, -40870.50, -105358.32, -35851.01, 0.000, 0.000, 0.000, 14:38:23.411
153, -18163.59, -16392.63, 30008.38, 17440.06, -74322.70, -40861.11, -105510.71, -35891.22, 0.000, 0.000, 0.000, 14:38:23.411
154, -18165.20, -16192.52, 30010.75, 17448.69, -74318.14, -40850.11, -105457.45, -35698.91, 0.000, 0.000, 0.000, 14:38:23.412
155, -18155.85, -16220.71, 30025.43, 17456.82, -74316.77, -40844.37, -105365.09, -35555.79, 0.000, 0.000, 0.000, 14:38:23.412
156, -18158.94, -16521.69, 30028.88, 17421.46, -74351.35, -40859.57, -105540.35, -35773.96, 0.000, 0.000, 0.000, 14:38:23.412
157, -18162.45, -16513.94, 30019.02, 17431.21, -74331.98, -40857.91, -105740.94, -35902.31, 0.000, -0.022, 1.012, 14:38:23.412
158, -18168.68, -16251.48, 30010.43, 17441.94, -74326.39, -40878.90, -105677.01, -35716.05, 0.000, 0.000, 0.000, 14:38:23.412
159, -18160.05, -16258.32, 30032.00, 17442.16, -74328.91, -40849.13, -105587.71, -35568.00, 0.000, 0.000, 0.000, 14:38:23.413
160, -18159.16, -16539.51, 30045.01, 17417.39, -74355.22, -40839.18, -105730.99, -35739.48, 0.000, 0.000, 0.000, 14:38:23.413
161, -18159.03, -16634.55, 30037.81, 17427.90, -74335.15, -40841.29, -105988.82, -35926.81, 0.000, 0.000, 0.000, 14:38:23.413
162, -18165.84, -16327.03, 30019.49, 17448.31, -74317.67, -40854.02, -105946.48, -35752.93, 0.000, 0.000, 0.000, 14:38:23.413
163, -18155.85, -16268.76, 30030.78, 17454.74, -74324.38, -40849.62, -105831.93, -35574.07, 0.000, 0.000, 0.000, 14:38:23.414
164, -18144.59, -16495.72, 30051.32, 17440.87, -74341.63, -40847.23, -105921.54, -35686.55, 0.000, 0.000, 0.000, 14:38:23.414
165, -18149.79, -16676.14, 30046.06, 17429.29, -74340.36, -40849.36, -106204.84, -35943.59, 0.000, 0.000, 0.000, 14:38:23.465
166, -18158.54, -16377.37, 30029.05, 17449.20, -74321.09, -40843.61, -106213.45, -35820.79, 0.000, 0.000, 0.000, 14:38:23.465
167, -18155.52, -16289.39, 30037.26, 17450.65, -74322.03, -40836.46, -106128.36, -35629.28, 0.000, -0.018, 1.012, 14:38:23.465
168, -18156.50, -16451.53, 30038.71, 17430.05, -74346.44, -40861.04, -106154.06, -35651.48, 0.000, 0.000, 0.000, 14:38:23.466
169, -18147.60, -16731.58, 30047.36, 17420.30, -74350.39, -40863.26, -106475.15, -35947.21, 0.000, 0.000, 0.000, 14:38:23.466
170, -18149.21, -16485.91, 30036.85, 17450.77, -74317.47, -40854.79, -106556.17, -35879.76, 0.000, 0.000, 0.000, 14:38:23.466
171, -18150.33, -16356.80, 30037.19, 17455.01, -74323.70, -40857.80, -106486.26, -35681.41, 0.000, 0.000, 0.000, 14:38:23.466
172, -18149.01, -16464.34, 30046.26, 17444.62, -74335.77, -40847.92, -106462.65, -35634.76, 0.000, 0.000, 0.000, 14:38:23.467
173, -18162.74, -16785.76, 30037.97, 17403.31, -74368.07, -40867.50, -106754.27, -35932.73, 0.000, 0.000, 0.000, 14:38:23.467
174, -18166.47, -16623.39, 30023.55, 17422.49, -74335.95, -40859.37, -106899.70, -35933.94, 0.000, 0.000, 0.000, 14:38:23.467
175, -18152.79, -16441.03, 30031.56, 17441.18, -74324.45, -40846.94, -106837.76, -35719.47, 0.000, 0.000, 0.000, 14:38:23.467
176, -18128.74, -16512.28, 30059.61, 17455.86, -74320.02, -40831.81, -106798.46, -35615.47, 0.000, 0.000, 0.000, 14:38:23.468
177, -18134.55, -16847.65, 30058.71, 17425.53, -74352.36, -40861.80, -107070.22, -35894.29, -0.004, -0.020, 1.018, 14:38:23.468
178, -18147.49, -16740.00, 30039.36, 17435.88, -74330.97, -40854.94, -107232.58, -35948.91, 0.000, 0.000, 0.000, 14:38:23.468
179, -18143.60, -16511.77, 30044.39, 17452.67, -74318.70, -40835.43, -107175.80, -35740.08, 0.000, 0.000, 0.000, 14:38:23.468
180, -18142.69, -16535.98, 30051.07, 17448.31, -74327.69, -40838.11, -107094.52, -35600.94, 0.000, 0.000, 0.000, 14:38:23.469
181, -18156.32, -16856.12, 30043.78, 17408.07, -74370.20, -40868.29, -107304.59, -35834.09, 0.000, 0.000, 0.000, 14:38:23.469
182, -18161.42, -16878.81, 30031.91, 17416.34, -74351.27, -40859.73, -107542.30, -35985.10, 0.000, 0.000, 0.000, 14:38:23.469
183, -18152.54, -16618.77, 30038.13, 17439.57, -74326.56, -40842.13, -107513.34, -35794.62, 0.000, 0.000, 0.000, 14:38:23.469
184, -18140.61, -16603.41, 30050.87, 17447.79, -74322.50, -40846.27, -107427.76, -35619.67, 0.000, 0.000, 0.000, 14:38:23.469
185, -18150.06, -16888.96, 30053.35, 17409.42, -74362.71, -40868.87, -107591.84, -35791.24, 0.000, 0.000, 0.000, 14:38:23.470
186, -18149.84, -17008.13, 30053.91, 17411.81, -74344.49, -40846.79, -107869.47, -36001.82, 0.000, 0.000, 0.000, 14:38:23.470
187, -18149.21, -16734.39, 30046.31, 17432.08, -74320.60, -40827.27, -107894.77, -35854.23, -0.002, -0.024, 1.014, 14:38:23.470
188, -18133.32, -16670.65, 30061.15, 17454.59, -74312.55, -40821.82, -107798.13, -35651.43, 0.000, 0.000, 0.000, 14:38:23.470
189, -18126.28, -16873.96, 30070.72, 17439.23, -74334.99, -40828.79, -107867.93, -35729.04, 0.000, 0.000, 0.000, 14:38:23.470
190, -18132.83, -17099.31, 30062.09, 17420.55, -74346.57, -40842.13, -108197.91, -36013.22, 0.000, 0.000, 0.000, 14:38:23.471
191, -18138.57, -16818.61, 30048.01, 17440.87, -74315.99, -40835.14, -108246.12, -35891.29, 0.000, 0.000, 0.000, 14:38:23.471
192, -18135.71, -16714.75, 30054.74, 17446.68, -74317.27, -40835.45, -108166.77, -35674.55, 0.000, 0.000, 0.000, 14:38:23.471
193, -18111.73, -16855.70, 30079.86, 17454.12, -74322.59, -40828.50, -108178.91, -35666.10, 0.000, 0.000, 0.000, 14:38:23.471
194, -18108.04, -17120.81, 30088.62, 17444.08, -74328.65, -40842.45, -108476.97, -35952.69, 0.000, 0.000, 0.000, 14:38:23.471
195, -18126.28, -16884.48, 30062.92, 17456.24, -74307.61, -40832.23, -108562.58, -35915.92, 0.000, 0.000, 0.000, 14:38:23.486
196, -18125.21, -16720.76, 30063.05, 17462.70, -74300.80, -40818.17, -108459.84, -35686.44, 0.000, 0.000, 0.000, 14:38:23.486
197, -18138.53, -16839.78, 30052.72, 17435.01, -74333.12, -40845.44, -108440.31, -35631.29, 0.000, -0.024, 1.006, 14:38:23.487
198, -18149.86, -17162.74, 30052.61, 17397.88, -74363.58, -40852.68, -108723.84, -35934.81, 0.000, 0.000, 0.000, 14:38:23.487
199, -18160.99, -16991.46, 30033.61, 17413.53, -74337.02, -40838.51, -108853.30, -35959.80, 0.000, 0.000, 0.000, 14:38:23.487
200, -18147.92, -16788.64, 30044.37, 17436.15, -74323.44, -40836.03, -108779.81, -35750.92, 0.000, 0.000, 0.000, 14:38:23.487
201, -18157.01, -16848.01, 30038.69, 17421.87, -74342.59, -40845.75, -108720.94, -35643.21, 0.000, 0.000, 0.000, 14:38:23.488
202, -18161.28, -17139.70, 30039.78, 17392.63, -74373.10, -40859.43, -108926.13, -35888.45, 0.000, 0.000, 0.000, 14:38:23.488
203, -18149.04, -17045.87, 30044.65, 17420.93, -74336.78, -40848.46, -109087.23, -35966.79, 0.000, 0.000, 0.000, 14:38:23.488
204, -18133.14, -16784.75, 30059.34, 17452.42, -74305.16, -40832.16, -109014.75, -35750.88, 0.000, 0.000, 0.000, 14:38:23.488
205, -18125.97, -16773.46, 30063.79, 17460.96, -74305.96, -40837.98, -108899.23, -35575.39, 0.000, 0.000, 0.000, 14:38:23.488
206, -18130.04, -17063.05, 30068.88, 17425.22, -74343.27, -40855.23, -109065.06, -35783.33, 0.000, 0.000, 0.000, 14:38:23.489
207, -18162.80, -17084.80, 30035.36, 17405.71, -74346.88, -40869.18, -109272.49, -35954.41, -0.002, -0.020, 1.004, 14:38:23.489
208, -18164.79, -16779.05, 30030.55, 17425.58, -74333.74, -40849.76, -109184.36, -35770.12, 0.000, 0.000, 0.000, 14:38:23.489
209, -18167.47, -16753.68, 30038.20, 17418.49, -74344.23, -40844.46, -109063.81, -35597.99, 0.000, 0.000, 0.000, 14:38:23.489
210, -18164.77, -16994.63, 30045.21, 17396.12, -74371.27, -40856.48, -109136.99, -35719.72, 0.000, 0.000, 0.000, 14:38:23.489
211, -18169.78, -17117.21, 30029.95, 17393.54, -74365.97, -40877.38, -109357.18, -35932.02, 0.000, 0.000, 0.000, 14:38:23.490
212, -18182.18, -16822.23, 30019.64, 17405.41, -74351.53, -40871.59, -109305.97, -35781.54, 0.000, 0.000, 0.000, 14:38:23.490
213, -18165.98, -16724.89, 30032.65, 17417.11, -74347.80, -40869.07, -109124.54, -35555.57, 0.000, 0.000, 0.000, 14:38:23.490
214, -18157.55, -16936.52, 30032.50, 17398.78, -74369.64, -40884.07, -109144.13, -35621.26, 0.000, 0.000, 0.000, 14:38:23.491
215, -18156.54, -17142.24, 30033.01, 17397.46, -74363.42, -40872.71, -109366.05, -35878.82, 0.000, 0.000, 0.000, 14:38:23.491
216, -18165.64, -16854.98, 30011.06, 17421.31, -74340.96, -40873.74, -109332.93, -35768.85, 0.002, -0.020, 1.006, 14:38:23.491
217, -18152.68, -16740.54, 30027.00, 17434.43, -74332.60, -40860.91, -109178.14, -35550.52, 0.000, 0.000, 0.000, 14:38:23.491
218, -18135.33, -16874.16, 30034.55, 17437.47, -74342.21, -40865.52, -109104.02, -35526.15, 0.000, 0.000, 0.000, 14:38:23.492
219, -18132.81, -17135.16, 30035.22, 17421.17, -74350.64, -40858.45, -109291.80, -35789.63, 0.000, 0.000, 0.000, 14:38:23.492
220, -18137.79, -16917.74, 30017.97, 17443.28, -74320.35, -40860.64, -109318.63, -35746.45, 0.000, 0.000, 0.000, 14:38:23.492
221, -18150.53, -16769.62, 30011.82, 17438.56, -74329.13, -40879.64, -109172.17, -35541.02, 0.000, 0.000, 0.000, 14:38:23.492
222, -18139.36, -16855.20, 30018.48, 17442.18, -74333.63, -40860.13, -109040.95, -35444.01, 0.000, 0.000, 0.000, 14:38:23.492
223, -18124.34, -17168.58, 30027.69, 17430.52, -74341.25, -40854.25, -109230.89, -35719.63, 0.000, 0.000, 0.000, 14:38:23.493
224, -18121.77, -17025.79, 30007.17, 17455.75, -74312.82, -40860.73, -109317.17, -35767.73, 0.000, 0.000, 0.000, 14:38:23.493
225, -18126.08, -16795.01, 29997.27, 17467.53, -74311.77, -40857.47, -109170.23, -35558.81, 0.000, 0.000, 0.000, 14:38:23.871
226, -18112.45, -16815.87, 30011.40, 17469.74, -74315.16, -40852.77, -109018.71, -35427.38, 0.000, -0.022, 1.008, 14:38:23.872
227, -18106.97, -17106.59, 30007.17, 17445.11, -74336.38, -40883.29, -109182.99, -35674.59, 0.000, 0.000, 0.000, 14:38:23.872
228, -18105.63, -17046.47, 29993.11, 17467.08, -74306.74, -40872.09, -109349.45, -35792.32, 0.000, 0.000, 0.000, 14:38:23.872
229, -18111.53, -16754.44, 29987.26, 17480.16, -74295.56, -40853.02, -109236.59, -35588.43, 0.000, 0.000, 0.000, 14:38:23.872
230, -18112.98, -16738.71, 29985.51, 17478.55, -74310.43, -40865.71, -109100.16, -35433.62, 0.000, 0.000, 0.000, 14:38:23.872
231, -18093.04, -17010.84, 30008.15, 17463.95, -74331.53, -40860.38, -109232.57, -35633.17, 0.000, 0.000, 0.000, 14:38:23.873
232, -18072.95, -17065.42, 30009.12, 17489.08, -74300.91, -40861.94, -109482.87, -35833.18, 0.000, 0.000, 0.000, 14:38:23.873
233, -18064.39, -16755.76, 30008.33, 17520.59, -74270.64, -40846.34, -109428.82, -35648.64, 0.000, 0.000, 0.000, 14:38:23.873
234, -18070.31, -16718.08, 29998.77, 17513.55, -74284.66, -40853.42, -109316.16, -35470.70, 0.000, 0.000, 0.000, 14:38:23.873
235, -18081.46, -16950.40, 29992.31, 17476.25, -74327.95, -40887.24, -109390.13, -35602.21, 0.000, 0.000, 0.000, 14:38:23.873
236, -18067.61, -17094.88, 30005.38, 17482.57, -74310.25, -40863.95, -109638.39, -35846.77, 0.002, -0.020, 1.010, 14:38:23.873
237, -18073.02, -16812.69, 29988.96, 17500.86, -74289.91, -40882.86, -109632.89, -35715.32, 0.000, 0.000, 0.000, 14:38:23.874
238, -18063.67, -16727.08, 30002.59, 17510.78, -74284.50, -40871.30, -109492.07, -35491.42, 0.000, 0.000, 0.000, 14:38:23.874
239, -18044.81, -16914.95, 30021.63, 17510.22, -74291.07, -40848.59, -109491.18, -35516.52, 0.000, 0.000, 0.000, 14:38:23.874
240, -18054.08, -17171.71, 30003.84, 17492.56, -74302.05, -40867.46, -109767.36, -35807.96, 0.000, 0.000, 0.000, 14:38:23.874
241, -18072.05, -16897.83, 29976.88, 17502.91, -74284.03, -40875.73, -109772.03, -35720.41, 0.000, 0.000, 0.000, 14:38:23.874
242, -18064.43, -16763.63, 29994.03, 17511.21, -74281.26, -40870.30, -109623.95, -35490.64, 0.000, 0.000, 0.000, 14:38:23.875
243, -18058.51, -16890.34, 30012.85, 17498.73, -74293.35, -40846.56, -109572.02, -35454.92, 0.000, 0.000, 0.000, 14:38:23.875
244, -18075.54, -17166.63, 29992.78, 17464.24, -74324.06, -40876.24, -109813.83, -35763.15, 0.000, 0.000, 0.000, 14:38:23.875
245, -18068.30, -16936.16, 29985.67, 17497.37, -74288.81, -40873.34, -109868.45, -35734.58, 0.000, 0.000, 0.000, 14:38:23.875
246, -18069.11, -16764.14, 29992.22, 17500.10, -74293.35, -40880.47, -109758.66, -35506.86, 0.002, -0.022, 1.010, 14:38:23.875
247, -18049.84, -16833.52, 30011.37, 17510.56, -74292.88, -40870.68, -109662.20, -35399.80, 0.000, 0.000, 0.000, 14:38:23.876
248, -18047.63, -17132.72, 30019.82, 17484.83, -74314.54, -40868.09, -109868.21, -35672.20, 0.000, 0.000, 0.000, 14:38:23.876
249, -18053.03, -16997.88, 30011.62, 17503.34, -74282.87, -40848.35, -109995.75, -35730.76, 0.000, 0.000, 0.000, 14:38:23.876
250, -18049.64, -16771.99, 30014.62, 17514.87, -74274.87, -40839.81, -109900.93, -35523.29, 0.000, 0.000, 0.000, 14:38:23.876
251, -18047.76, -16804.80, 30017.23, 17513.82, -74282.80, -40850.98, -109798.83, -35381.31, 0.000, 0.000, 0.000, 14:38:23.876
252, -18051.45, -17087.46, 30019.67, 17483.94, -74314.01, -40865.89, -109958.77, -35619.43, 0.000, 0.000, 0.000, 14:38:23.876
253, -18053.19, -17046.60, 30007.08, 17497.93, -74292.52, -40867.86, -110131.49, -35766.84, 0.000, 0.000, 0.000, 14:38:23.877
254, -18043.04, -16763.52, 30012.31, 17527.10, -74268.45, -40861.34, -110043.80, -35569.83, 0.000, 0.000, 0.000, 14:38:23.877
255, -18038.35, -16734.06, 30024.31, 17528.62, -74268.05, -40848.88, -109890.00, -35376.20, 0.000, 0.000, 0.000, 14:38:23.877
0, -18038.08, -16994.28, 30026.68, 17494.84, -74301.94, -40858.14, -109986.13, -35553.73, 0.002, -0.026, 1.008, 14:38:23.877
1, -18047.09, -17052.06, 30006.12, 17495.58, -74294.98, -40880.11, -110189.78, -35766.79, 0.000, 0.000, 0.000, 14:38:23.877
2, -18065.91, -16768.08, 29985.60, 17497.48, -74293.27, -40885.96, -110140.07, -35631.74, 0.000, 0.000, 0.000, 14:38:23.878
3, -18057.77, -16720.96, 30006.61, 17506.76, -74290.38, -40859.75, -109995.55, -35437.32, 0.000, 0.000, 0.000, 14:38:23.878
4, -18070.27, -16943.20, 29999.75, 17471.62, -74328.96, -40880.49, -110027.27, -35549.40, 0.000, 0.000, 0.000, 14:38:23.878
5, -18070.42, -17127.56, 29999.21, 17464.29, -74326.41, -40883.51, -110287.17, -35844.08, 0.000, 0.000, 0.000, 14:38:23.878
6, -18069.31, -16834.86, 29987.99, 17493.77, -74296.28, -40871.08, -110298.63, -35735.57, 0.000, 0.000, 0.000, 14:38:23.878
7, -18056.50, -16737.79, 30001.96, 17503.87, -74288.34, -40857.18, -110206.77, -35519.11, 0.000, 0.000, 0.000, 14:38:23.879
8, -18050.40, -16904.94, 30014.17, 17489.48, -74308.82, -40871.68, -110231.78, -35549.98, 0.000, 0.000, 0.000, 14:38:23.879
9, -18053.86, -17143.09, 30013.21, 17474.32, -74312.44, -40878.79, -110517.86, -35855.73, 0.000, 0.000, 0.000, 14:38:23.879
10, -18064.95, -16861.82, 29994.52, 17494.11, -74289.26, -40879.24, -110570.25, -35794.06, 0.002, -0.022, 1.008, 14:38:23.879
11, -18047.45, -16705.18, 30011.66, 17510.94, -74276.88, -40845.71, -110461.71, -35566.74, 0.000, 0.000, 0.000, 14:38:23.879
12, -18041.88, -16791.26, 30019.33, 17501.39, -74291.02, -40849.93, -110400.05, -35503.02, 0.000, 0.000, 0.000, 14:38:23.880
13, -18045.95, -17063.88, 30018.23, 17478.88, -74314.23, -40872.31, -110646.00, -35815.52, 0.000, 0.000, 0.000, 14:38:23.880
14, -18055.78, -16865.91, 30000.96, 17492.54, -74288.55, -40868.58, -110757.80, -35848.82, 0.000, 0.000, 0.000, 14:38:23.880
15, -18044.03, -16659.63, 30018.08, 17508.88, -74268.72, -40836.61, -110666.81, -35621.84, 0.000, 0.000, 0.000, 14:38:23.880
16, -18040.90, -16697.69, 30025.25, 17505.77, -74278.73, -40838.85, -110580.36, -35503.64, 0.000, 0.000, 0.000, 14:38:23.880
17, -18048.74, -16988.02, 30019.35, 17473.34, -74316.22, -40873.29, -110800.19, -35790.02, 0.000, 0.000, 0.000, 14:38:23.880
18, -18062.04, -16876.75, 29993.83, 17487.76, -74296.39, -40892.70, -110977.34, -35891.18, 0.000, 0.000, 0.000, 14:38:23.881
19, -18067.88, -16601.36, 29998.54, 17494.49, -74286.63, -40861.47, -110878.82, -35674.10, 0.000, 0.000, 0.000, 14:38:23.881
20, -18050.42, -16609.31, 30019.02, 17497.95, -74289.64, -40857.76, -110777.88, -35514.42, 0.004, -0.020, 1.008, 14:38:23.881
21, -18034.24, -16916.29, 30035.42, 17485.32, -74311.21, -40862.43, -110989.17, -35760.24, 0.000, 0.000, 0.000, 14:38:23.881
22, -18036.11, -16890.23, 30018.28, 17503.74, -74284.74, -40873.76, -111204.98, -35923.01, 0.000, 0.000, 0.000, 14:38:23.881
23, -18034.53, -16593.06, 30009.54, 17522.67, -74267.18, -40883.66, -111153.48, -35717.55, 0.000, 0.000, 0.000, 14:38:23.882
24, -18047.20, -16548.81, 30008.31, 17509.75, -74278.33, -40860.30, -111028.35, -35510.35, 0.000, 0.000, 0.000, 14:38:23.882
25, -18037.75, -16806.86, 30029.81, 17484.45, -74304.26, -40858.92, -111158.15, -35677.20, 0.000, 0.000, 0.000, 14:38:23.882
26, -18035.26, -16911.22, 30015.82, 17491.89, -74295.54, -40871.23, -111433.92, -35923.10, 0.000, 0.000, 0.000, 14:38:23.882
27, -18039.85, -16606.03, 30006.43, 17514.87, -74271.91, -40861.69, -111419.69, -35760.64, 0.000, 0.000, 0.000, 14:38:23.882
28, -18029.86, -16526.48, 30031.36, 17521.24, -74263.02, -40837.62, -111297.47, -35529.68, 0.000, 0.000, 0.000, 14:38:23.882
29, -18027.66, -16751.71, 30037.75, 17498.29, -74298.13, -40858.16, -111384.59, -35633.17, 0.000, 0.000, 0.000, 14:38:23.917
30, -18023.26, -16946.49, 30033.97, 17499.63, -74294.78, -40870.54, -111686.43, -35928.04, 0.004, -0.018, 1.008, 14:38:23.917
31, -18032.85, -16643.29, 30017.34, 17519.10, -74266.17, -40855.79, -111713.21, -35819.21, 0.000, 0.000, 0.000, 14:38:23.917
32, -18043.58, -16549.39, 30018.73, 17502.96, -74282.96, -40858.16, -111636.14, -35617.48, 0.000, 0.000, 0.000, 14:38:23.917
33, -18059.61, -16734.17, 30015.11, 17468.54, -74320.13, -40873.88, -111691.87, -35645.18, 0.000, 0.000, 0.000, 14:38:23.918
34, -18066.85, -16998.99, 30004.11, 17447.21, -74337.38, -40895.36, -111993.55, -35959.60, 0.000, 0.000, 0.000, 14:38:23.918
35, -18062.53, -16757.08, 29992.60, 17482.21, -74303.14, -40891.89, -112092.72, -35925.67, 0.000, 0.000, 0.000, 14:38:23.918
36, -18057.84, -16596.75, 30001.92, 17494.55, -74292.63, -40876.69, -112015.90, -35695.89, 0.000, 0.000, 0.000, 14:38:23.918
37, -18046.71, -16697.13, 30023.24, 17489.12, -74302.29, -40863.84, -111993.48, -35624.63, 0.000, 0.000, 0.000, 14:38:23.918
38, -18041.63, -16996.71, 30029.12, 17476.54, -74317.85, -40878.59, -112274.73, -35934.07, 0.000, 0.000, 0.000, 14:38:23.919
39, -18037.72, -16799.41, 30012.11, 17510.02, -74280.19, -40891.26, -112388.34, -35963.38, 0.000, 0.000, 0.000, 14:38:23.919
40, -18037.21, -16576.97, 30014.82, 17519.39, -74272.99, -40872.36, -112283.27, -35737.53, 0.002, -0.020, 1.016, 14:38:23.919
41, -18030.35, -16643.78, 30027.15, 17516.37, -74281.51, -40854.99, -112209.51, -35623.00, 0.000, 0.000, 0.000, 14:38:23.919
42, -18036.61, -16960.30, 30029.86, 17481.34, -74313.53, -40870.70, -112427.15, -35902.31, 0.000, 0.000, 0.000, 14:38:23.919
43, -18039.78, -16882.41, 30023.53, 17499.18, -74284.77, -40875.73, -112605.18, -36022.94, 0.000, 0.000, 0.000, 14:38:23.920
44, -18032.20, -16610.83, 30028.74, 17521.31, -74262.55, -40854.34, -112515.34, -35795.33, 0.000, 0.000, 0.000, 14:38:23.920
45, -18030.86, -16584.86, 30030.84, 17520.32, -74269.01, -40847.86, -112359.11, -35595.58, 0.000, 0.000, 0.000, 14:38:23.920
46, -18033.83, -16867.56, 30038.80, 17487.74, -74308.64, -40871.86, -112483.61, -35812.21, 0.000, 0.000, 0.000, 14:38:23.920
47, -18033.19, -16874.92, 30036.14, 17506.09, -74280.59, -40880.54, -112655.70, -35996.28, 0.000, 0.000, 0.000, 14:38:23.920
48, -18044.52, -16569.71, 30014.46, 17517.60, -74271.55, -40886.03, -112538.99, -35799.45, 0.000, 0.000, 0.000, 14:38:23.921
49, -18044.21, -16517.89, 30026.82, 17514.71, -74272.45, -40856.57, -112336.55, -35581.43, 0.000, 0.000, 0.000, 14:38:23.921
50, -18033.59, -16760.32, 30049.28, 17496.97, -74293.20, -40854.38, -112366.57, -35714.80, 0.000, -0.018, 1.002, 14:38:23.921
51, -18037.01, -16883.55, 30035.78, 17499.40, -74284.27, -40863.77, -112589.48, -35975.02, 0.000, 0.000, 0.000, 14:38:23.922
52, -18061.04, -16569.82, 30015.91, 17508.52, -74272.36, -40865.47, -112552.67, -35832.55, 0.000, 0.000, 0.000, 14:38:23.922
53, -18046.11, -16467.42, 30028.05, 17517.08, -74268.63, -40860.53, -112413.94, -35590.84, 0.000, 0.000, 0.000, 14:38:23.922
54, -18044.14, -16662.53, 30034.08, 17494.89, -74295.38, -40873.38, -112461.21, -35651.12, 0.000, 0.000, 0.000, 14:38:23.922
55, -18043.74, -16886.00, 30030.60, 17487.96, -74298.09, -40873.27, -112768.99, -35968.29, 0.000, 0.000, 0.000, 14:38:23.922
56, -18029.34, -16616.89, 30034.44, 17526.70, -74254.95, -40853.29, -112849.57, -35896.81, 0.000, 0.000, 0.000, 14:38:23.923
57, -18025.72, -16490.69, 30040.74, 17534.09, -74250.08, -40844.75, -112777.09, -35665.54, 0.000, 0.000, 0.000, 14:38:23.923
58, -18036.70, -16624.27, 30036.79, 17508.70, -74279.12, -40857.02, -112790.88, -35649.58, 0.000, 0.000, 0.000, 14:38:23.923
59, -18058.35, -16880.91, 30008.62, 17473.95, -74315.39, -40895.80, -113069.24, -35976.11, 0.000, 0.000, 0.000, 14:38:23.924
60, -18072.88, -16641.86, 29987.79, 17486.26, -74291.30, -40888.18, -113157.40, -35967.11, 0.000, -0.020, 1.000, 14:38:23.931
61, -18062.47, -16448.78, 30007.89, 17501.26, -74273.44, -40866.23, -113042.71, -35717.57, 0.000, 0.000, 0.000, 14:38:23.931
62, -18041.68, -16536.45, 30023.64, 17504.97, -74281.39, -40864.04, -112986.97, -35630.87, 0.000, 0.000, 0.000, 14:38:23.931
63, -18046.71, -16849.15, 30025.25, 17482.48, -74309.63, -40881.47, -113239.45, -35950.34, 0.000, 0.000, 0.000, 14:38:23.931
64, -18051.65, -16683.01, 30018.12, 17503.34, -74278.55, -40872.27, -113363.66, -36011.77, 0.000, 0.000, 0.000, 14:38:23.931
65, -18045.55, -16453.65, 30027.06, 17513.24, -74265.21, -40858.45, -113269.96, -35786.55, 0.000, 0.000, 0.000, 14:38:23.932
66, -18048.38, -16493.31, 30028.70, 17503.16, -74281.84, -40860.75, -113188.98, -35650.23, 0.000, 0.000, 0.000, 14:38:23.932
67, -18049.44, -16792.26, 30031.00, 17476.81, -74313.98, -40870.81, -113407.43, -35929.24, 0.000, 0.000, 0.000, 14:38:23.932
68, -18050.46, -16723.28, 30017.56, 17494.98, -74286.20, -40876.00, -113631.21, -36084.03, 0.000, 0.000, 0.000, 14:38:23.932
69, -18045.32, -16453.48, 30020.81, 17512.28, -74270.62, -40866.45, -113619.52, -35893.68, 0.000, -0.024, 1.006, 14:38:23.932
70, -18046.37, -16434.95, 30023.29, 17512.17, -74274.13, -40874.84, -113561.99, -35702.46, 0.000, 0.000, 0.000, 14:38:23.933
71, -18045.59, -16712.85, 30025.43, 17488.70, -74307.26, -40892.96, -113769.68, -35909.62, 0.000, 0.000, 0.000, 14:38:23.933
72, -18035.15, -16777.58, 30036.43, 17506.69, -74277.05, -40861.98, -114101.88, -36140.36, 0.000, 0.000, 0.000, 14:38:23.933
73, -18035.89, -16487.00, 30030.60, 17523.43, -74255.87, -40856.73, -114159.95, -35975.60, 0.000, 0.000, 0.000, 14:38:23.933
74, -18029.74, -16424.58, 30039.58, 17528.66, -74256.63, -40854.43, -114116.98, -35749.02, 0.000, 0.000, 0.000, 14:38:23.933
75, -18030.93, -16648.88, 30044.83, 17509.84, -74282.84, -40856.17, -114276.22, -35865.86, 0.000, 0.000, 0.000, 14:38:23.933
76, -18043.76, -16781.71, 30026.08, 17496.16, -74289.59, -40872.64, -114601.70, -36140.54, 0.000, 0.000, 0.000, 14:38:23.934
77, -18038.80, -16456.07, 30024.00, 17522.72, -74258.77, -40855.37, -114644.41, -36000.07, 0.000, 0.000, 0.000, 14:38:23.934
78, -18022.97, -16349.16, 30047.65, 17538.47, -74245.07, -40835.99, -114580.05, -35753.49, 0.000, 0.000, 0.000, 14:38:23.934
79, -18034.04, -16552.27, 30044.32, 17506.91, -74282.49, -40866.00, -114690.35, -35811.11, 0.000, -0.024, 1.008, 14:38:23.934
80, -18028.22, -16787.84, 30045.44, 17505.51, -74280.52, -40864.15, -115032.66, -36117.04, 0.000, 0.000, 0.000, 14:38:23.934
81, -18029.83, -16495.18, 30032.65, 17532.73, -74247.66, -40848.84, -115115.99, -36026.47, 0.000, 0.000, 0.000, 14:38:23.935
82, -18019.78, -16337.47, 30041.39, 17546.70, -74242.75, -40841.82, -115042.73, -35780.20, 0.000, 0.000, 0.000, 14:38:23.935
83, -18017.23, -16446.01, 30042.24, 17535.70, -74264.38, -40864.40, -115040.94, -35737.24, 0.000, 0.000, 0.000, 14:38:23.935
84, -18031.76, -16724.94, 30028.25, 17506.49, -74290.76, -40888.54, -115330.28, -36059.26, 0.000, 0.000, 0.000, 14:38:23.935
85, -18027.91, -16508.97, 30021.48, 17530.96, -74259.53, -40869.65, -115452.39, -36068.20, 0.000, 0.000, 0.000, 14:38:23.935
86, -18041.03, -16316.46, 30013.70, 17525.35, -74263.63, -40860.44, -115368.91, -35828.79, 0.000, 0.000, 0.000, 14:38:23.936
87, -18025.25, -16396.03, 30034.84, 17528.37, -74267.85, -40845.46, -115314.81, -35706.73, 0.000, 0.000, 0.000, 14:38:23.936
88, -18029.97, -16716.06, 30028.67, 17500.43, -74299.61, -40877.67, -115564.75, -36000.41, 0.000, 0.000, 0.000, 14:38:23.936
0, -17866.62, -15629.66, 29871.52, 17277.99, -74226.14, -40991.89, -105901.94, -35875.93, 0.006, -0.022, 1.006, 14:38:49.958
1, -17861.59, -15923.96, 29873.42, 17264.38, -74236.78, -41000.56, -106193.36, -36244.94, 0.000, 0.000, 0.000, 14:38:49.958
2, -17872.79, -15659.16, 29852.18, 17288.58, -74205.94, -41000.92, -106216.13, -36177.48, 0.000, 0.000, 0.000, 14:38:49.958
3, -17883.16, -15467.16, 29850.40, 17287.91, -74207.66, -40990.57, -105999.32, -35892.63, 0.000, 0.000, 0.000, 14:38:49.959
4, -17884.41, -15559.05, 29856.43, 17270.07, -74229.11, -40991.62, -105858.91, -35823.21, 0.000, 0.000, 0.000, 14:38:49.959
5, -17879.76, -15879.24, 29863.79, 17249.60, -74249.77, -41006.60, -106094.05, -36175.02, 0.000, 0.000, 0.000, 14:38:49.959
6, -17878.22, -15689.94, 29851.78, 17276.24, -74216.10, -41000.07, -106169.76, -36197.06, 0.000, 0.000, 0.000, 14:38:49.959
7, -17869.64, -15482.38, 29859.65, 17293.41, -74201.80, -40985.50, -106005.24, -35943.93, 0.004, -0.020, 1.010, 14:38:49.959
8, -17865.39, -15523.44, 29862.38, 17289.86, -74212.35, -40993.86, -105833.78, -35808.59, 0.000, 0.000, 0.000, 14:38:49.959
9, -17869.79, -15859.70, 29858.67, 17260.31, -74247.27, -41015.92, -106035.02, -36139.33, 0.000, 0.000, 0.000, 14:38:49.959
10, -17880.86, -15759.01, 29845.34, 17277.67, -74214.59, -41003.40, -106169.04, -36240.47, 0.000, 0.000, 0.000, 14:38:49.960
11, -17876.14, -15509.79, 29853.53, 17291.73, -74198.55, -40985.48, -106032.23, -35991.09, 0.000, 0.000, 0.000, 14:38:49.960
12, -17867.47, -15505.90, 29867.43, 17291.96, -74203.01, -40978.03, -105836.53, -35792.65, 0.000, 0.000, 0.000, 14:38:49.960
13, -17854.21, -15819.13, 29877.71, 17271.82, -74228.89, -40985.74, -105979.83, -36057.18, 0.000, 0.000, 0.000, 14:38:49.960
14, -17861.55, -15811.36, 29858.60, 17282.61, -74207.32, -40990.77, -106161.57, -36247.04, 0.000, 0.000, 0.000, 14:38:49.960
15, -17871.76, -15521.36, 29853.46, 17293.23, -74196.59, -40985.70, -106050.40, -36037.63, 0.000, 0.000, 0.000, 14:38:49.960
16, -17869.86, -15477.17, 29862.06, 17290.37, -74203.25, -40983.60, -105842.08, -35808.12, 0.000, 0.000, 0.000, 14:38:49.961
17, -17861.79, -15736.39, 29871.03, 17268.13, -74232.48, -40992.92, -105893.84, -35987.34, 0.008, -0.018, 1.008, 14:38:49.961
18, -17867.69, -15848.71, 29856.19, 17269.02, -74224.28, -41001.77, -106120.45, -36258.84, 0.000, 0.000, 0.000, 14:38:49.961
19, -17863.94, -15547.45, 29855.49, 17292.72, -74195.48, -40982.86, -106046.44, -36079.49, 0.000, 0.000, 0.000, 14:38:49.961
20, -17859.11, -15468.41, 29866.06, 17298.84, -74192.61, -40969.96, -105848.36, -35818.20, 0.000, 0.000, 0.000, 14:38:49.961
21, -17859.60, -15686.19, 29873.29, 17272.62, -74225.63, -40985.52, -105844.07, -35906.20, 0.000, 0.000, 0.000, 14:38:49.961
22, -17862.26, -15921.50, 29866.02, 17263.12, -74227.62, -40996.05, -106135.18, -36248.65, 0.000, 0.000, 0.000, 14:38:49.961
23, -17867.00, -15628.54, 29851.74, 17288.13, -74197.77, -40984.43, -106115.62, -36131.97, 0.000, 0.000, 0.000, 14:38:49.962
24, -17870.69, -15479.01, 29853.44, 17291.24, -74197.87, -40980.27, -105895.34, -35854.03, 0.000, 0.000, 0.000, 14:38:49.962
25, -17864.79, -15626.60, 29862.13, 17275.37, -74221.85, -40986.04, -105814.54, -35858.84, 0.000, 0.000, 0.000, 14:38:49.962
26, -17861.99, -15919.31, 29865.17, 17264.51, -74232.64, -40993.97, -106083.66, -36218.54, 0.000, 0.000, 0.000, 14:38:49.962
27, -17865.64, -15660.55, 29851.29, 17291.55, -74195.70, -40984.74, -106103.99, -36162.21, 0.006, -0.016, 1.012, 14:38:49.962
28, -17868.19, -15481.35, 29854.87, 17293.19, -74196.37, -40983.64, -105911.59, -35899.07, 0.000, 0.000, 0.000, 14:38:49.962
29, -17868.45, -15579.43, 29857.04, 17279.73, -74214.83, -40989.61, -105789.04, -35816.75, 0.000, 0.000, 0.000, 14:38:49.962
30, -17868.90, -15895.40, 29860.46, 17254.76, -74238.63, -40995.76, -106013.31, -36157.16, 0.000, 0.000, 0.000, 14:38:49.996
31, -17871.27, -15725.39, 29848.21, 17277.99, -74206.94, -40988.16, -106111.95, -36201.91, 0.000, 0.000, 0.000, 14:38:49.997
32, -17868.90, -15503.42, 29852.83, 17289.99, -74196.70, -40976.36, -105951.67, -35951.04, 0.000, 0.000, 0.000, 14:38:49.997
33, -17870.55, -15533.70, 29854.64, 17280.96, -74210.00, -40985.03, -105775.67, -35801.32, 0.000, 0.000, 0.000, 14:38:49.997
34, -17863.71, -15855.30, 29865.28, 17257.07, -74237.65, -40994.86, -105954.10, -36111.88, 0.000, 0.000, 0.000, 14:38:49.997
35, -17866.80, -15769.20, 29853.73, 17275.98, -74208.21, -40991.27, -106092.20, -36232.20, 0.000, 0.000, 0.000, 14:38:49.997
36, -17865.44, -15502.01, 29854.42, 17289.79, -74197.62, -40979.20, -105946.48, -35995.29, 0.006, -0.014, 1.012, 14:38:49.998
37, -17854.71, -15515.55, 29867.09, 17290.71, -74204.13, -40973.74, -105775.24, -35808.59, 0.000, 0.000, 0.000, 14:38:49.998
38, -17855.56, -15820.61, 29866.15, 17261.69, -74236.71, -40995.00, -105905.38, -36053.83, 0.000, 0.000, 0.000, 14:38:49.998
39, -17862.64, -15834.33, 29850.66, 17272.27, -74216.44, -40999.29, -106094.01, -36252.43, 0.000, 0.000, 0.000, 14:38:49.998
40, -17867.29, -15536.74, 29848.50, 17287.84, -74199.95, -40984.07, -105986.76, -36049.16, 0.000, 0.000, 0.000, 14:38:49.998
41, -17861.19, -15496.73, 29862.02, 17289.65, -74200.91, -40970.21, -105793.35, -35822.47, 0.000, 0.000, 0.000, 14:38:49.998
42, -17859.42, -15771.28, 29874.89, 17263.48, -74232.20, -40981.81, -105869.19, -35990.96, 0.000, 0.000, 0.000, 14:38:49.999
43, -17877.35, -15885.43, 29851.78, 17256.26, -74233.94, -41001.41, -106083.52, -36261.03, 0.000, 0.000, 0.000, 14:38:49.999
44, -17878.31, -15591.73, 29845.72, 17277.27, -74212.08, -40992.79, -106021.63, -36109.40, 0.000, 0.000, 0.000, 14:38:49.999
45, -17863.60, -15514.59, 29858.33, 17288.85, -74205.94, -40978.43, -105841.63, -35857.76, 0.000, 0.000, 0.000, 14:38:49.999
46, -17860.47, -15715.42, 29865.44, 17270.23, -74231.33, -40987.98, -105833.23, -35915.59, 0.006, -0.012, 1.010, 14:38:49.999
47, -17870.20, -15937.33, 29852.01, 17254.54, -74238.95, -41003.25, -106094.48, -36244.20, 0.000, 0.000, 0.000, 14:38:49.999
48, -17880.93, -15634.46, 29835.73, 17274.52, -74211.79, -40990.97, -106056.50, -36131.41, 0.000, 0.000, 0.000, 14:38:50.000
49, -17873.93, -15498.52, 29848.50, 17283.89, -74206.58, -40976.27, -105862.80, -35866.64, 0.000, 0.000, 0.000, 14:38:50.000
50, -17868.43, -15638.11, 29858.55, 17270.03, -74226.09, -40982.53, -105776.19, -35848.26, 0.000, 0.000, 0.000, 14:38:50.000
51, -17868.70, -15938.07, 29856.88, 17252.35, -74243.15, -40999.40, -106039.31, -36211.66, 0.000, 0.000, 0.000, 14:38:50.000
52, -17879.96, -15713.52, 29841.46, 17274.17, -74213.76, -40995.42, -106099.75, -36191.16, 0.000, 0.000, 0.000, 14:38:50.000
53, -17886.89, -15515.57, 29836.83, 17275.98, -74212.70, -40989.07, -105908.64, -35919.12, 0.000, 0.000, 0.000, 14:38:50.000
54, -17879.72, -15585.69, 29846.30, 17266.12, -74226.52, -40990.39, -105754.91, -35812.99, 0.000, 0.000, 0.000, 14:38:50.001
55, -17870.67, -15910.66, 29856.45, 17247.70, -74244.76, -41001.28, -105979.81, -36152.25, 0.000, 0.000, 0.000, 14:38:50.001
56, -17867.54, -15758.54, 29852.38, 17277.99, -74204.48, -40985.07, -106093.83, -36209.63, 0.002, -0.012, 1.006, 14:38:50.001
57, -17869.55, -15516.45, 29854.42, 17288.54, -74195.88, -40973.36, -105927.48, -35955.46, 0.000, 0.000, 0.000, 14:38:50.001
58, -17869.50, -15550.71, 29861.73, 17281.32, -74207.19, -40973.85, -105757.66, -35796.54, 0.000, 0.000, 0.000, 14:38:50.001
59, -17860.88, -15872.11, 29872.88, 17260.24, -74233.90, -40986.68, -105931.30, -36093.33, 0.000, 0.000, 0.000, 14:38:50.002
60, -17866.62, -15818.64, 29854.75, 17274.28, -74210.60, -40986.26, -106102.12, -36246.86, 0.000, 0.000, 0.000, 14:38:50.002
61, -17867.27, -15543.04, 29847.07, 17287.20, -74199.70, -40980.11, -105972.91, -36015.03, 0.000, 0.000, 0.000, 14:38:50.003
62, -17868.88, -15520.69, 29856.63, 17285.97, -74203.90, -40974.05, -105772.70, -35792.72, 0.000, 0.000, 0.000, 14:38:50.003
63, -17864.61, -15809.08, 29867.90, 17259.93, -74233.02, -40987.29, -105874.71, -36015.07, 0.000, 0.000, 0.000, 14:38:50.003
64, -17868.56, -15873.74, 29853.75, 17269.72, -74216.71, -40995.87, -106103.21, -36253.21, 0.000, 0.000, 0.000, 14:38:50.003
65, -17868.45, -15570.47, 29848.21, 17288.56, -74196.52, -40983.00, -106012.78, -36056.63, 0.000, 0.000, 0.000, 14:38:50.003
66, -17854.30, -15514.88, 29862.78, 17297.93, -74193.38, -40971.55, -105827.95, -35819.32, 0.006, -0.018, 1.006, 14:38:50.003
67, -17856.09, -15758.96, 29868.90, 17272.40, -74225.11, -40984.92, -105871.76, -35961.30, 0.000, 0.000, 0.000, 14:38:50.004
68, -17859.60, -15900.25, 29860.92, 17271.55, -74217.83, -40984.80, -106103.13, -36250.55, 0.000, 0.000, 0.000, 14:38:50.004
69, -17864.61, -15597.49, 29850.17, 17291.40, -74196.88, -40979.06, -106054.93, -36102.36, 0.000, 0.000, 0.000, 14:38:50.004
70, -17860.70, -15495.95, 29858.04, 17296.49, -74194.55, -40968.11, -105862.17, -35847.55, 0.000, 0.000, 0.000, 14:38:50.004
71, -17862.69, -15666.69, 29864.66, 17276.98, -74219.73, -40975.62, -105815.19, -35885.37, 0.000, 0.000, 0.000, 14:38:50.004
72, -17866.46, -15909.23, 29861.50, 17263.15, -74228.60, -40988.98, -106072.91, -36220.53, 0.000, 0.000, 0.000, 14:38:50.004
73, -17871.02, -15637.53, 29841.66, 17285.18, -74197.91, -40984.34, -106078.83, -36140.13, 0.000, 0.000, 0.000, 14:38:50.004
74, -17867.36, -15484.13, 29844.43, 17289.74, -74197.09, -40973.38, -105880.95, -35870.05, 0.000, 0.000, 0.000, 14:38:50.005
75, -17865.26, -15617.52, 29857.17, 17275.08, -74218.79, -40977.96, -105789.13, -35833.55, 0.000, 0.000, 0.000, 14:38:50.005
76, -17868.07, -15930.13, 29856.63, 17254.83, -74236.09, -40992.36, -106047.98, -36194.56, 0.008, -0.016, 1.008, 14:38:50.005
77, -17875.70, -15729.86, 29844.29, 17275.86, -74203.99, -40983.93, -106120.29, -36193.26, 0.000, 0.000, 0.000, 14:38:50.005
78, -17871.31, -15537.26, 29848.32, 17286.75, -74196.26, -40975.44, -105948.41, -35926.61, 0.000, 0.000, 0.000, 14:38:50.005
79, -17867.74, -15595.68, 29852.72, 17277.52, -74212.98, -40983.84, -105784.48, -35805.68, 0.000, 0.000, 0.000, 14:38:50.005
80, -17866.38, -15939.16, 29858.11, 17254.59, -74235.23, -40994.46, -106012.78, -36143.57, 0.000, 0.000, 0.000, 14:38:50.005
81, -17874.00, -15804.58, 29845.12, 17275.80, -74203.19, -40983.13, -106130.93, -36222.48, 0.000, 0.000, 0.000, 14:38:50.006
82, -17877.55, -15566.36, 29841.90, 17282.93, -74196.63, -40974.25, -105986.42, -35979.58, 0.000, 0.000, 0.000, 14:38:50.006
83, -17875.88, -15573.02, 29845.86, 17276.20, -74210.09, -40978.32, -105793.75, -35796.43, 0.000, 0.000, 0.000, 14:38:50.006
84, -17863.20, -15906.46, 29863.67, 17256.11, -74232.95, -40986.37, -105977.09, -36082.93, 0.000, 0.000, 0.000, 14:38:50.006
85, -17872.32, -15875.37, 29842.84, 17267.37, -74212.39, -40996.41, -106162.09, -36248.98, 0.000, 0.000, 0.000, 14:38:50.006
86, -17882.54, -15577.11, 29830.57, 17276.45, -74204.21, -40993.86, -106022.57, -36010.02, 0.008, -0.022, 1.008, 14:38:50.006
87, -17875.49, -15531.27, 29839.51, 17277.07, -74210.18, -40982.50, -105802.00, -35779.35, 0.000, 0.000, 0.000, 14:38:50.006
88, -17869.91, -15824.72, 29855.74, 17251.05, -74241.70, -40987.91, -105904.77, -35994.93, 0.000, 0.000, 0.000, 14:38:50.006
89, -17868.81, -15904.29, 29855.09, 17266.61, -74215.12, -40982.73, -106140.48, -36237.16, 0.000, 0.000, 0.000, 14:38:50.007
90, -17871.00, -15602.72, 29853.35, 17285.07, -74195.48, -40973.23, -106065.10, -36052.71, 0.000, 0.000, 0.000, 14:38:50.007
91, -17862.62, -15534.44, 29860.97, 17291.44, -74191.36, -40965.47, -105876.05, -35804.21, 0.000, 0.000, 0.000, 14:38:50.007
92, -17870.98, -15734.08, 29856.79, 17261.02, -74229.34, -40986.39, -105859.91, -35910.85, 0.000, 0.000, 0.000, 14:38:50.007
93, -17868.01, -15930.07, 29855.36, 17256.51, -74228.02, -40993.88, -106128.05, -36237.70, 0.000, 0.000, 0.000, 14:38:50.007
94, -17861.64, -15635.25, 29845.14, 17286.10, -74192.95, -40978.61, -106096.38, -36100.61, 0.000, 0.000, 0.000, 14:38:50.007
95, -17862.44, -15511.53, 29849.77, 17290.77, -74192.10, -40974.01, -105892.48, -35833.73, 0.000, 0.000, 0.000, 14:38:50.007
96, -17859.74, -15683.08, 29861.48, 17273.79, -74217.11, -40981.92, -105846.37, -35861.72, 0.006, -0.018, 1.000, 14:38:50.008
97, -17862.44, -15931.92, 29858.62, 17261.56, -74225.34, -40997.28, -106093.98, -36199.03, 0.000, 0.000, 0.000, 14:38:50.008
98, -17872.10, -15665.80, 29840.11, 17277.99, -74200.23, -40988.27, -106102.48, -36137.38, 0.000, 0.000, 0.000, 14:38:50.008
99, -17862.87, -15508.56, 29849.81, 17290.39, -74188.25, -40967.41, -105916.66, -35872.31, 0.000, 0.000, 0.000, 14:38:50.008
100, -17857.43, -15618.57, 29862.89, 17283.31, -74203.14, -40966.88, -105804.37, -35815.68, 0.000, 0.000, 0.000, 14:38:50.008
101, -17859.36, -15935.09, 29868.70, 17266.01, -74219.88, -40977.86, -106060.16, -36175.78, 0.000, 0.000, 0.000, 14:38:50.008
102, -17860.54, -15725.44, 29851.04, 17289.32, -74189.21, -40974.59, -106130.08, -36184.21, 0.000, 0.000, 0.000, 14:38:50.008
103, -17856.18, -15506.43, 29856.07, 17300.25, -74180.99, -40962.36, -105957.70, -35915.34, 0.000, 0.000, 0.000, 14:38:50.009
104, -17850.42, -15541.03, 29866.22, 17295.29, -74192.73, -40962.32, -105787.74, -35776.71, 0.000, 0.000, 0.000, 14:38:50.009
105, -17847.02, -15887.31, 29873.46, 17269.76, -74221.98, -40977.03, -106021.05, -36120.02, 0.000, 0.000, 0.000, 14:38:50.009
106, -17862.31, -15773.04, 29852.45, 17286.68, -74195.32, -40978.93, -106163.90, -36224.89, 0.002, -0.016, 0.998, 14:38:50.009
107, -17865.79, -15523.89, 29849.97, 17291.00, -74191.54, -40974.75, -106030.21, -35986.51, 0.000, 0.000, 0.000, 14:38:50.009
108, -17862.26, -15524.38, 29858.71, 17289.28, -74199.32, -40974.01, -105848.18, -35797.88, 0.000, 0.000, 0.000, 14:38:50.009
109, -17858.64, -15832.46, 29865.33, 17264.17, -74227.93, -40990.73, -106000.75, -36059.00, 0.000, 0.000, 0.000, 14:38:50.009
110, -17864.54, -15821.37, 29845.79, 17270.75, -74210.85, -40995.67, -106194.68, -36244.49, 0.000, 0.000, 0.000, 14:38:50.010
111, -17868.36, -15541.97, 29844.58, 17284.00, -74195.52, -40984.98, -106101.58, -36035.91, 0.000, 0.000, 0.000, 14:38:50.010
112, -17882.40, -15488.24, 29845.52, 17281.63, -74201.73, -40982.35, -105890.09, -35798.93, 0.000, 0.000, 0.000, 14:38:50.010
113, -17877.60, -15760.24, 29857.59, 17255.61, -74234.74, -40990.80, -105962.93, -35990.87, 0.000, 0.000, 0.000, 14:38:50.010
114, -17866.64, -15875.19, 29851.07, 17265.83, -74217.11, -40991.71, -106216.24, -36256.50, 0.000, 0.000, 0.000, 14:38:50.010
115, -17868.99, -15573.44, 29842.06, 17285.45, -74193.48, -40979.02, -106155.29, -36077.52, 0.000, 0.000, 0.000, 14:38:50.010
116, -17863.04, -15480.46, 29853.23, 17293.79, -74188.45, -40965.18, -105947.53, -35815.00, 0.006, -0.020, 1.006, 14:38:50.011
117, -17865.57, -15693.56, 29858.69, 17269.94, -74222.01, -40979.02, -105950.93, -35915.23, 0.000, 0.000, 0.000, 14:38:50.011
118, -17867.89, -15900.00, 29854.17, 17266.45, -74222.45, -40991.33, -106223.33, -36243.46, 0.000, 0.000, 0.000, 14:38:50.011
119, -17869.86, -15605.12, 29844.03, 17289.03, -74195.59, -40980.27, -106202.57, -36122.36, 0.000, 0.000, 0.000, 14:38:50.011
120, -17867.96, -15466.42, 29849.72, 17295.53, -74191.31, -40969.47, -105996.59, -35851.84, 0.000, 0.000, 0.000, 14:38:50.443
121, -17864.97, -15624.34, 29862.18, 17276.98, -74216.30, -40975.42, -105929.77, -35864.42, 0.000, 0.000, 0.000, 14:38:50.443
122, -17864.45, -15910.73, 29862.62, 17264.62, -74225.70, -40984.43, -106206.52, -36226.43, 0.000, 0.000, 0.000, 14:38:50.444
123, -17865.99, -15642.38, 29847.98, 17291.60, -74191.16, -40976.69, -106221.90, -36165.95, 0.000, 0.000, 0.000, 14:38:50.444
124, -17865.39, -15477.33, 29853.10, 17293.97, -74190.69, -40971.28, -106046.06, -35900.86, 0.000, 0.000, 0.000, 14:38:50.444
125, -17868.10, -15564.28, 29855.18, 17280.16, -74210.85, -40977.36, -105911.44, -35824.48, 0.000, 0.000, 0.000, 14:38:50.444
126, -17855.53, -15887.15, 29864.59, 17263.44, -74229.85, -40986.14, -106153.51, -36182.89, 0.006, -0.024, 1.012, 14:38:50.445
127, -17851.64, -15705.79, 29860.50, 17294.24, -74189.82, -40971.06, -106240.66, -36204.71, 0.000, 0.000, 0.000, 14:38:50.445
128, -17848.34, -15493.94, 29869.44, 17309.55, -74175.22, -40957.02, -106089.58, -35932.20, 0.000, 0.000, 0.000, 14:38:50.445
129, -17858.78, -15515.93, 29860.28, 17292.74, -74195.20, -40976.58, -105904.41, -35773.96, 0.000, 0.000, 0.000, 14:38:50.446
130, -17861.64, -15846.80, 29859.90, 17260.49, -74231.10, -40997.14, -106094.34, -36097.82, 0.000, 0.000, 0.000, 14:38:50.446
131, -17870.87, -15764.22, 29843.78, 17275.57, -74207.66, -40992.29, -106245.41, -36221.36, 0.000, 0.000, 0.000, 14:38:50.446
132, -17881.13, -15512.47, 29836.81, 17277.27, -74204.86, -40985.66, -106117.12, -35987.34, 0.000, 0.000, 0.000, 14:38:50.446
133, -17872.54, -15508.20, 29846.17, 17277.25, -74207.48, -40976.07, -105930.75, -35788.63, 0.000, 0.000, 0.000, 14:38:50.447
134, -17869.88, -15810.35, 29852.12, 17251.08, -74239.73, -40990.55, -106059.05, -36040.04, 0.000, 0.000, 0.000, 14:38:50.447
135, -17868.59, -15836.75, 29849.57, 17265.76, -74214.54, -40986.53, -106269.80, -36246.48, 0.000, 0.000, 0.000, 14:38:50.447
136, -17875.16, -15541.14, 29843.53, 17277.52, -74198.13, -40980.83, -106164.86, -36035.79, 0.006, -0.018, 1.006, 14:38:50.447
137, -17872.59, -15486.41, 29853.32, 17278.50, -74200.59, -40974.57, -105960.59, -35794.73, 0.000, 0.000, 0.000, 14:38:50.447
138, -17862.04, -15762.72, 29867.36, 17258.03, -74231.73, -40984.18, -106042.62, -35977.46, 0.000, 0.000, 0.000, 14:38:50.447
139, -17861.37, -15892.13, 29856.50, 17271.06, -74214.31, -40986.66, -106296.87, -36254.33, 0.000, 0.000, 0.000, 14:38:50.447
140, -17867.45, -15584.95, 29842.77, 17289.32, -74191.70, -40978.70, -106230.57, -36081.70, 0.000, 0.000, 0.000, 14:38:50.448
141, -17862.55, -15484.91, 29850.15, 17293.19, -74193.28, -40973.29, -106016.89, -35815.79, 0.000, 0.000, 0.000, 14:38:50.448
142, -17859.11, -15684.22, 29860.99, 17269.67, -74225.05, -40985.39, -105994.36, -35896.32, 0.000, 0.000, 0.000, 14:38:50.448
143, -17861.03, -15916.83, 29861.66, 17261.65, -74225.72, -40993.68, -106269.04, -36232.11, 0.000, 0.000, 0.000, 14:38:50.448
144, -17870.31, -15625.57, 29846.66, 17279.26, -74199.67, -40984.43, -106248.97, -36120.42, 0.000, 0.000, 0.000, 14:38:50.448
145, -17865.12, -15485.74, 29854.64, 17285.81, -74196.50, -40973.52, -106045.14, -35848.91, 0.006, -0.020, 1.012, 14:38:50.448
146, -17867.20, -15630.24, 29862.98, 17269.96, -74218.52, -40980.96, -105964.97, -35840.11, 0.000, 0.000, 0.000, 14:38:50.448
147, -17872.70, -15915.31, 29857.26, 17253.29, -74234.61, -40996.32, -106215.17, -36190.38, 0.000, 0.000, 0.000, 14:38:50.449
148, -17868.30, -15689.38, 29845.28, 17281.90, -74200.73, -40986.17, -106271.77, -36162.93, 0.000, 0.000, 0.000, 14:38:50.449
149, -17863.18, -15511.82, 29851.45, 17291.94, -74192.92, -40968.80, -106104.33, -35900.68, 0.000, 0.000, 0.000, 14:38:50.449
150, -17858.51, -15589.87, 29860.54, 17283.93, -74209.17, -40970.32, -105968.56, -35802.84, 0.000, 0.000, 0.000, 14:38:50.449
151, -17854.95, -15912.25, 29868.99, 17264.46, -74226.25, -40979.82, -106205.56, -36137.47, 0.000, 0.000, 0.000, 14:38:50.449
152, -17873.46, -15741.01, 29847.47, 17278.61, -74203.41, -40982.91, -106306.55, -36192.57, 0.000, 0.000, 0.000, 14:38:50.449
153, -17875.29, -15498.23, 29849.39, 17289.90, -74192.70, -40970.84, -106132.78, -35927.07, 0.000, 0.000, 0.000, 14:38:50.450
154, -17868.68, -15520.63, 29856.77, 17283.80, -74201.22, -40968.67, -105949.37, -35765.74, 0.000, 0.000, 0.000, 14:38:50.450
155, -17860.81, -15845.31, 29862.58, 17263.30, -74226.14, -40985.48, -106128.56, -36067.20, 0.002, -0.018, 1.012, 14:38:50.450
156, -17872.70, -15771.43, 29839.53, 17271.17, -74209.42, -40997.39, -106269.82, -36204.10, 0.000, 0.000, 0.000, 14:38:50.450
157, -17865.97, -15510.30, 29850.71, 17288.36, -74189.98, -40974.19, -106138.06, -35981.30, 0.000, 0.000, 0.000, 14:38:50.450
158, -17852.05, -15507.28, 29870.83, 17293.37, -74186.69, -40959.21, -105955.22, -35775.24, 0.000, 0.000, 0.000, 14:38:50.450
159, -17847.60, -15815.31, 29876.14, 17265.69, -74220.48, -40977.38, -106085.16, -36013.58, 0.000, 0.000, 0.000, 14:38:50.450
160, -17850.50, -15866.18, 29861.21, 17277.90, -74202.80, -40980.63, -106309.30, -36233.16, 0.000, 0.000, 0.000, 14:38:50.450
161, -17853.77, -15574.38, 29852.16, 17294.75, -74185.70, -40972.80, -106224.23, -36026.14, 0.000, 0.000, 0.000, 14:38:50.451
162, -17866.20, -15519.35, 29852.47, 17284.04, -74198.54, -40971.84, -106024.85, -35786.73, 0.000, 0.000, 0.000, 14:38:50.451
163, -17862.60, -15758.96, 29870.51, 17261.60, -74227.57, -40973.45, -106055.88, -35933.91, 0.000, 0.000, 0.000, 14:38:50.451
164, -17858.17, -15915.09, 29867.61, 17267.93, -74216.04, -40978.84, -106315.42, -36232.80, 0.000, 0.000, 0.000, 14:38:50.451
165, -17864.72, -15612.89, 29852.88, 17285.90, -74192.97, -40975.55, -106267.03, -36081.46, 0.002, -0.016, 1.012, 14:38:50.451
166, -17862.13, -15491.90, 29860.21, 17288.60, -74193.02, -40966.54, -106039.58, -35808.93, 0.000, 0.000, 0.000, 14:38:50.452
167, -17858.06, -15687.77, 29875.47, 17271.75, -74217.49, -40972.78, -106012.82, -35872.52, 0.000, 0.000, 0.000, 14:38:50.452
168, -17860.43, -15937.29, 29871.72, 17261.92, -74222.30, -40982.17, -106289.11, -36218.03, 0.000, 0.000, 0.000, 14:38:50.452
169, -17868.03, -15658.60, 29853.84, 17283.51, -74195.27, -40973.34, -106284.89, -36131.01, 0.000, 0.000, 0.000, 14:38:50.452
170, -17867.13, -15499.19, 29851.22, 17286.08, -74197.87, -40970.05, -106073.33, -35859.57, 0.000, 0.000, 0.000, 14:38:50.452
171, -17867.43, -15623.13, 29857.26, 17272.94, -74218.12, -40972.07, -105967.59, -35824.55, 0.000, 0.000, 0.000, 14:38:50.453
172, -17869.46, -15929.93, 29853.23, 17253.11, -74237.34, -40987.98, -106222.21, -36185.48, 0.000, 0.000, 0.000, 14:38:50.453
173, -17870.76, -15701.74, 29841.72, 17279.17, -74201.44, -40978.08, -106265.91, -36161.70, 0.000, 0.000, 0.000, 14:38:50.453
174, -17867.96, -15508.58, 29849.44, 17285.23, -74197.38, -40967.37, -106078.54, -35895.98, 0.000, 0.000, 0.000, 14:38:50.453
175, -17863.76, -15599.10, 29859.45, 17275.91, -74211.01, -40967.95, -105952.56, -35796.41, 0.006, -0.016, 1.006, 14:38:50.453
176, -17858.28, -15931.43, 29865.93, 17256.66, -74231.95, -40980.47, -106179.86, -36134.52, 0.000, 0.000, 0.000, 14:38:50.454
177, -17860.16, -15786.90, 29854.98, 17281.21, -74197.24, -40972.96, -106301.16, -36204.77, 0.000, 0.000, 0.000, 14:38:50.454
178, -17859.71, -15544.72, 29854.42, 17292.18, -74185.26, -40964.69, -106148.19, -35950.07, 0.000, 0.000, 0.000, 14:38:50.454
179, -17854.62, -15566.40, 29859.87, 17285.99, -74195.97, -40964.20, -105976.01, -35783.71, 0.000, 0.000, 0.000, 14:38:50.454
180, -17855.11, -15889.79, 29865.84, 17261.00, -74225.91, -40979.02, -106152.39, -36073.39, 0.000, 0.000, 0.000, 14:38:50.456
181, -17860.05, -15862.50, 29847.65, 17272.56, -74205.80, -40978.93, -106350.31, -36237.68, 0.000, 0.000, 0.000, 14:38:50.456
182, -17869.91, -15586.25, 29841.92, 17280.51, -74194.83, -40971.80, -106238.44, -36010.98, 0.000, 0.000, 0.000, 14:38:50.456
183, -17873.77, -15550.42, 29845.34, 17277.74, -74201.46, -40972.54, -106036.80, -35782.62, 0.000, 0.000, 0.000, 14:38:50.456
184, -17875.94, -15836.48, 29848.96, 17246.29, -74239.75, -40993.77, -106138.06, -36002.49, 0.000, 0.000, 0.000, 14:38:50.456
185, -17878.71, -15908.25, 29839.53, 17253.85, -74222.12, -40992.41, -106369.00, -36246.28, 0.004, -0.016, 1.012, 14:38:50.456
186, -17885.17, -15599.15, 29833.07, 17266.97, -74204.46, -40980.83, -106272.62, -36048.49, 0.000, 0.000, 0.000, 14:38:50.456
187, -17877.57, -15542.78, 29844.81, 17268.62, -74206.09, -40973.63, -106084.30, -35814.73, 0.000, 0.000, 0.000, 14:38:50.457
188, -17877.46, -15773.38, 29848.16, 17244.53, -74237.74, -40983.24, -106107.95, -35944.15, 0.000, 0.000, 0.000, 14:38:50.457
189, -17876.50, -15941.29, 29841.61, 17249.94, -74227.33, -40987.67, -106358.67, -36241.27, 0.000, 0.000, 0.000, 14:38:50.457
190, -17882.13, -15648.75, 29828.71, 17270.54, -74200.63, -40981.74, -106326.46, -36105.62, 0.000, 0.000, 0.000, 14:38:50.457
191, -17877.33, -15530.80, 29838.55, 17280.38, -74194.69, -40967.64, -106121.30, -35832.71, 0.000, 0.000, 0.000, 14:38:50.457
192, -17875.29, -15696.31, 29850.04, 17264.67, -74215.59, -40970.88, -106065.93, -35859.93, 0.000, 0.000, 0.000, 14:38:50.457
193, -17883.99, -15949.47, 29839.76, 17245.55, -74231.15, -40990.91, -106323.13, -36203.95, 0.000, 0.000, 0.000, 14:38:50.457
194, -17898.76, -15685.65, 29819.19, 17259.41, -74209.02, -40987.78, -106333.70, -36137.56, 0.000, 0.000, 0.000, 14:38:50.458
195, -17902.12, -15533.90, 29820.82, 17259.01, -74211.79, -40977.70, -106144.50, -35878.77, 0.004, -0.014, 1.008, 14:38:50.458
196, -17890.71, -15665.47, 29834.55, 17251.84, -74225.63, -40974.52, -106055.65, -35840.04, 0.000, 0.000, 0.000, 14:38:50.458
197, -17893.15, -15989.41, 29832.49, 17236.55, -74241.43, -40988.43, -106330.87, -36210.16, 0.000, 0.000, 0.000, 14:38:50.458
198, -17897.04, -15799.46, 29812.62, 17258.09, -74212.91, -40989.57, -106427.58, -36234.90, 0.000, 0.000, 0.000, 14:38:50.458
199, -17896.35, -15633.86, 29816.98, 17266.30, -74207.23, -40982.48, -106312.20, -36005.62, 0.000, 0.000, 0.000, 14:38:50.458
200, -17897.13, -15709.63, 29825.68, 17256.33, -74221.09, -40984.71, -106202.37, -35901.30, 0.000, 0.000, 0.000, 14:38:50.458
201, -17900.66, -16048.60, 29826.55, 17227.79, -74251.80, -41000.56, -106448.10, -36240.36, 0.000, 0.000, 0.000, 14:38:50.458
202, -17897.51, -15922.69, 29814.86, 17252.46, -74216.73, -40991.69, -106595.20, -36316.02, 0.000, 0.000, 0.000, 14:38:50.459
203, -17891.27, -15673.74, 29823.95, 17267.53, -74202.34, -40974.43, -106469.67, -36055.69, 0.000, 0.000, 0.000, 14:38:50.459
204, -17889.87, -15676.98, 29830.46, 17272.64, -74206.63, -40970.32, -106309.41, -35862.03, 0.000, 0.000, 0.000, 14:38:50.459
205, -17895.16, -15964.67, 29830.59, 17244.68, -74239.84, -40992.11, -106454.09, -36113.36, 0.004, -0.020, 1.010, 14:38:50.459
206, -17897.35, -15921.84, 29815.68, 17257.36, -74218.20, -40994.89, -106630.05, -36273.37, 0.000, 0.000, 0.000, 14:38:50.459
207, -17899.97, -15608.74, 29806.41, 17269.36, -74206.31, -40987.00, -106489.77, -36037.34, 0.000, 0.000, 0.000, 14:38:50.459
208, -17887.41, -15552.75, 29820.38, 17277.36, -74201.59, -40975.04, -106272.28, -35798.51, 0.000, 0.000, 0.000, 14:38:50.459
209, -17885.20, -15833.73, 29827.46, 17250.47, -74233.13, -40991.69, -106365.02, -36002.76, 0.000, 0.000, 0.000, 14:38:50.459
210, -17888.57, -15904.72, 29817.85, 17257.78, -74215.08, -40993.19, -106578.52, -36241.43, 0.000, 0.000, 0.000, 14:38:50.460
211, -17898.96, -15573.47, 29811.84, 17272.02, -74195.92, -40985.10, -106468.33, -36041.83, 0.000, 0.000, 0.000, 14:38:50.460
212, -17889.08, -15478.49, 29827.35, 17280.74, -74193.13, -40968.71, -106240.38, -35786.46, 0.000, 0.000, 0.000, 14:38:50.460
213, -17876.75, -15696.71, 29841.21, 17265.80, -74218.63, -40971.95, -106235.63, -35897.32, 0.000, 0.000, 0.000, 14:38:50.460
214, -17880.14, -15893.52, 29830.32, 17258.21, -74220.62, -40981.56, -106491.44, -36212.11, 0.000, 0.000, 0.000, 14:38:50.460
215, -17889.69, -15589.74, 29814.70, 17277.76, -74195.67, -40974.90, -106441.62, -36080.77, 0.008, -0.020, 1.012, 14:38:50.460
216, -17884.01, -15469.15, 29824.78, 17281.36, -74195.59, -40967.41, -106231.84, -35812.32, 0.000, 0.000, 0.000, 14:38:50.460
217, -17884.01, -15639.27, 29835.67, 17260.69, -74222.50, -40979.80, -106172.88, -35834.79, 0.000, 0.000, 0.000, 14:38:50.460
218, -17884.64, -15896.40, 29831.93, 17245.96, -74231.03, -40990.13, -106417.37, -36176.66, 0.000, 0.000, 0.000, 14:38:50.461
219, -17888.10, -15630.22, 29823.62, 17272.71, -74199.01, -40975.06, -106421.39, -36108.59, 0.000, 0.000, 0.000, 14:38:50.461
220, -17885.98, -15467.70, 29830.91, 17281.34, -74194.22, -40966.59, -106236.88, -35846.72, 0.000, 0.000, 0.000, 14:38:50.461
221, -17881.60, -15559.85, 29838.04, 17271.53, -74210.72, -40969.20, -106104.78, -35777.34, 0.000, 0.000, 0.000, 14:38:50.461
222, -17883.41, -15867.21, 29838.91, 17250.03, -74231.23, -40984.40, -106333.03, -36129.65, 0.000, 0.000, 0.000, 14:38:50.461
223, -17888.26, -15674.21, 29825.41, 17273.56, -74198.65, -40981.34, -106407.66, -36153.75, 0.000, 0.000, 0.000, 14:38:50.461
224, -17890.25, -15451.67, 29818.63, 17277.32, -74197.77, -40976.38, -106218.30, -35894.64, 0.000, 0.000, 0.000, 14:38:50.461
225, -17887.72, -15497.94, 29827.44, 17269.09, -74211.74, -40975.69, -106041.63, -35766.97, 0.002, -0.016, 1.012, 14:38:50.462
226, -17883.34, -15836.97, 29836.58, 17246.11, -74234.05, -40988.65, -106241.88, -36101.73, 0.000, 0.000, 0.000, 14:38:50.462
227, -17889.87, -15738.11, 29817.45, 17264.71, -74205.27, -40986.53, -106376.89, -36211.08, 0.000, 0.000, 0.000, 14:38:50.462
228, -17897.98, -15458.20, 29816.13, 17273.72, -74197.75, -40979.22, -106194.27, -35952.00, 0.000, 0.000, 0.000, 14:38:50.462
229, -17891.59, -15452.23, 29829.05, 17270.10, -74207.90, -40974.95, -105978.49, -35759.86, 0.000, 0.000, 0.000, 14:38:50.462
230, -17885.40, -15773.13, 29840.65, 17244.64, -74236.76, -40985.01, -106115.51, -36027.23, 0.000, 0.000, 0.000, 14:38:50.462
231, -17883.85, -15776.78, 29832.76, 17261.94, -74213.58, -40983.82, -106296.00, -36218.68, 0.000, 0.000, 0.000, 14:38:50.462
232, -17873.93, -15487.01, 29835.98, 17287.53, -74188.37, -40969.45, -106177.64, -36003.59, 0.000, 0.000, 0.000, 14:38:50.462
233, -17874.49, -15450.06, 29842.62, 17285.92, -74193.15, -40966.79, -105974.34, -35782.26, 0.000, 0.000, 0.000, 14:38:50.463
234, -17880.88, -15718.37, 29850.51, 17257.42, -74226.66, -40976.22, -106032.34, -35967.55, 0.000, 0.000, 0.000, 14:38:50.463
235, -17876.72, -15847.23, 29848.09, 17265.29, -74209.89, -40970.72, -106277.63, -36239.51, 0.004, -0.020, 1.014, 14:38:50.463
236, -17890.65, -15531.15, 29826.57, 17281.54, -74189.66, -40973.41, -106187.23, -36053.30, 0.000, 0.000, 0.000, 14:38:50.463
237, -17886.27, -15434.13, 29832.11, 17281.25, -74196.99, -40966.16, -105953.63, -35792.29, 0.000, 0.000, 0.000, 14:38:50.463
238, -17879.52, -15647.45, 29838.84, 17257.22, -74227.55, -40975.80, -105936.78, -35892.27, 0.000, 0.000, 0.000, 14:38:50.463
239, -17872.14, -15869.45, 29840.79, 17254.21, -74224.64, -40981.50, -106198.25, -36229.36, 0.000, 0.000, 0.000, 14:38:50.463
240, -17866.84, -15600.62, 29839.62, 17282.08, -74189.33, -40968.27, -106200.09, -36133.00, 0.000, 0.000, 0.000, 14:38:50.859
241, -17863.04, -15456.16, 29844.45, 17290.62, -74181.46, -40954.27, -105990.27, -35851.10, 0.000, 0.000, 0.000, 14:38:50.859
242, -17859.83, -15593.56, 29858.20, 17272.94, -74202.36, -40954.72, -105897.33, -35832.73, 0.000, 0.000, 0.000, 14:38:50.859
243, -17863.49, -15889.32, 29854.73, 17251.72, -74218.07, -40969.50, -106169.66, -36187.25, 0.000, 0.000, 0.000, 14:38:50.860
244, -17881.98, -15649.33, 29827.98, 17266.59, -74196.93, -40976.65, -106206.81, -36152.74, 0.000, 0.000, 0.000, 14:38:50.860
245, -17877.10, -15472.86, 29835.40, 17276.78, -74189.37, -40966.43, -106019.82, -35885.81, 0.004, -0.022, 1.012, 14:38:50.860
246, -17872.61, -15570.13, 29842.91, 17270.50, -74201.95, -40970.81, -105897.66, -35805.39, 0.000, 0.000, 0.000, 14:38:50.860
247, -17873.28, -15875.86, 29844.90, 17249.00, -74220.46, -40981.39, -106111.62, -36144.13, 0.000, 0.000, 0.000, 14:38:50.860
248, -17868.23, -15700.25, 29840.83, 17275.57, -74181.81, -40969.00, -106198.92, -36186.31, 0.000, 0.000, 0.000, 14:38:50.860
249, -17864.21, -15484.06, 29846.04, 17289.50, -74171.24, -40958.72, -106040.63, -35930.14, 0.000, 0.000, 0.000, 14:38:50.861
250, -17860.18, -15518.97, 29849.39, 17282.95, -74185.75, -40962.01, -105864.77, -35777.16, 0.000, 0.000, 0.000, 14:38:50.861
251, -17862.37, -15844.84, 29856.10, 17253.87, -74218.95, -40973.70, -106044.77, -36091.85, 0.000, 0.000, 0.000, 14:38:50.861
252, -17862.37, -15770.65, 29848.65, 17277.74, -74185.82, -40962.90, -106201.13, -36224.55, 0.000, 0.000, 0.000, 14:38:50.861
253, -17861.90, -15512.51, 29847.47, 17291.44, -74170.91, -40949.13, -106076.44, -35990.20, 0.000, 0.000, 0.000, 14:38:50.861
254, -17864.83, -15467.67, 29847.56, 17289.95, -74175.42, -40951.34, -105842.44, -35766.57, 0.006, -0.020, 1.008, 14:38:50.862
255, -17859.76, -15791.42, 29861.13, 17257.80, -74214.74, -40968.64, -105980.13, -36031.14, 0.000, 0.000, 0.000, 14:38:50.862
0, -17865.84, -15830.64, 29849.72, 17269.61, -74193.30, -40972.33, -106198.74, -36246.14, 0.000, 0.000, 0.000, 14:38:50.862
1, -17871.45, -15527.58, 29837.86, 17283.49, -74178.22, -40963.39, -106087.48, -36035.57, 0.000, 0.000, 0.000, 14:38:50.862
2, -17870.96, -15466.38, 29840.70, 17283.15, -74186.48, -40960.64, -105872.21, -35800.05, 0.000, 0.000, 0.000, 14:38:50.862
3, -17867.13, -15728.88, 29853.08, 17258.03, -74219.05, -40972.63, -105927.51, -35961.47, 0.000, 0.000, 0.000, 14:38:50.862
4, -17871.34, -15872.06, 29848.52, 17258.90, -74211.45, -40974.64, -106178.74, -36250.04, 0.000, 0.000, 0.000, 14:38:50.862
5, -17880.99, -15567.07, 29834.68, 17276.71, -74188.39, -40970.05, -106115.82, -36089.91, 0.000, 0.000, 0.000, 14:38:50.863
6, -17878.02, -15470.80, 29840.90, 17278.01, -74190.82, -40962.90, -105908.26, -35831.21, 0.000, 0.000, 0.000, 14:38:50.863
7, -17873.77, -15668.84, 29854.67, 17263.57, -74211.95, -40964.29, -105884.59, -35902.69, 0.000, 0.000, 0.000, 14:38:50.863
8, -17869.37, -15902.97, 29853.95, 17256.53, -74210.45, -40966.84, -106150.20, -36238.93, 0.006, -0.026, 1.010, 14:38:50.863
9, -17868.83, -15614.82, 29847.83, 17282.61, -74175.55, -40950.52, -106136.05, -36130.57, 0.000, 0.000, 0.000, 14:38:50.863
10, -17873.73, -15452.92, 29848.74, 17283.75, -74178.17, -40948.66, -105909.87, -35854.39, 0.000, 0.000, 0.000, 14:38:50.863
11, -17857.54, -15597.09, 29867.27, 17276.87, -74190.11, -40944.55, -105823.37, -35836.53, 0.000, 0.000, 0.000, 14:38:50.864
12, -17862.24, -15889.32, 29858.53, 17256.24, -74209.66, -40963.68, -106072.19, -36182.58, 0.000, 0.000, 0.000, 14:38:50.864
13, -17865.41, -15660.50, 29846.55, 17281.79, -74175.91, -40956.33, -106117.25, -36147.82, 0.000, 0.000, 0.000, 14:38:50.864
14, -17876.41, -15471.56, 29848.14, 17286.17, -74174.91, -40951.93, -105931.15, -35872.80, 0.000, 0.000, 0.000, 14:38:50.871
15, -17868.99, -15553.91, 29865.13, 17279.89, -74185.48, -40949.45, -105793.95, -35770.66, 0.000, 0.000, 0.000, 14:38:50.871
16, -17866.06, -15884.87, 29864.97, 17257.58, -74206.76, -40965.76, -106028.89, -36112.53, 0.000, 0.000, 0.000, 14:38:50.872
17, -17867.00, -15738.94, 29847.18, 17277.29, -74180.01, -40961.67, -106148.38, -36179.88, 0.000, 0.000, 0.000, 14:38:50.872
18, -17866.71, -15506.95, 29845.08, 17289.81, -74170.38, -40947.90, -105994.78, -35923.12, 0.010, -0.020, 1.006, 14:38:50.872
19, -17874.22, -15523.29, 29839.89, 17278.93, -74189.26, -40963.91, -105805.35, -35759.93, 0.000, 0.000, 0.000, 14:38:50.872
20, -17870.02, -15835.63, 29851.36, 17254.50, -74218.34, -40971.62, -105957.57, -36055.24, 0.000, 0.000, 0.000, 14:38:50.872
21, -17871.61, -15781.20, 29839.60, 17270.05, -74191.36, -40965.89, -106115.40, -36204.95, 0.000, 0.000, 0.000, 14:38:50.873
22, -17862.84, -15528.07, 29845.59, 17286.35, -74177.01, -40954.14, -106002.79, -35984.56, 0.000, 0.000, 0.000, 14:38:50.873
23, -17866.64, -15519.33, 29848.61, 17280.71, -74187.43, -40956.80, -105822.38, -35781.83, 0.000, 0.000, 0.000, 14:38:50.873
24, -17869.32, -15809.32, 29848.94, 17250.47, -74222.77, -40975.17, -105928.84, -36013.38, 0.000, 0.000, 0.000, 14:38:50.873
25, -17871.81, -15848.62, 29835.26, 17265.22, -74199.32, -40977.47, -106126.46, -36230.54, 0.000, 0.000, 0.000, 14:38:50.873
26, -17871.36, -15542.42, 29832.71, 17285.43, -74176.74, -40963.91, -106019.08, -36024.17, 0.000, 0.000, 0.000, 14:38:50.873
27, -17859.24, -15491.79, 29848.59, 17288.45, -74176.32, -40946.45, -105822.77, -35783.82, 0.000, 0.000, 0.000, 14:38:50.874
28, -17848.89, -15744.37, 29864.12, 17269.34, -74201.53, -40952.91, -105868.79, -35925.15, 0.006, -0.018, 1.012, 14:38:50.874
29, -17855.15, -15910.06, 29853.17, 17269.16, -74194.40, -40965.02, -106131.69, -36225.23, 0.000, 0.000, 0.000, 14:38:50.874
30, -17864.23, -15590.88, 29839.31, 17289.99, -74170.55, -40956.91, -106064.14, -36069.72, 0.000, 0.000, 0.000, 14:38:50.874
31, -17859.60, -15483.39, 29846.87, 17291.73, -74173.95, -40950.63, -105857.97, -35813.80, 0.000, 0.000, 0.000, 14:38:50.874
32, -17851.91, -15666.54, 29864.16, 17274.05, -74195.92, -40950.34, -105820.28, -35863.84, 0.000, 0.000, 0.000, 14:38:50.874
33, -17846.62, -15920.28, 29864.63, 17268.87, -74197.69, -40957.02, -106100.22, -36207.21, 0.000, 0.000, 0.000, 14:38:50.875
34, -17849.37, -15650.47, 29852.36, 17296.54, -74166.08, -40947.88, -106124.27, -36127.57, 0.000, 0.000, 0.000, 14:38:50.875
35, -17844.18, -15495.88, 29862.87, 17307.11, -74155.93, -40934.16, -105943.95, -35852.44, 0.000, 0.000, 0.000, 14:38:50.875
36, -17855.60, -15598.28, 29860.63, 17286.86, -74181.37, -40953.40, -105833.65, -35809.50, 0.000, 0.000, 0.000, 14:38:50.875
37, -17863.22, -15875.19, 29857.08, 17263.99, -74201.40, -40971.33, -106055.91, -36153.43, 0.000, 0.000, 0.000, 14:38:50.875
38, -17862.73, -15652.17, 29845.46, 17288.80, -74169.37, -40960.89, -106103.77, -36146.50, 0.004, -0.018, 1.008, 14:38:50.875
39, -17857.52, -15471.79, 29848.74, 17298.71, -74164.02, -40945.69, -105944.94, -35900.61, 0.000, 0.000, 0.000, 14:38:50.876
40, -17856.49, -15536.00, 29854.73, 17291.15, -74177.66, -40945.67, -105796.15, -35781.34, 0.000, 0.000, 0.000, 14:38:50.876
41, -17861.03, -15851.19, 29851.78, 17261.60, -74207.16, -40968.45, -105995.95, -36105.80, 0.000, 0.000, 0.000, 14:38:50.876
42, -17860.21, -15723.29, 29838.82, 17281.00, -74179.56, -40967.04, -106118.32, -36187.54, 0.000, 0.000, 0.000, 14:38:50.876
43, -17866.55, -15492.24, 29837.30, 17288.43, -74172.59, -40954.65, -105974.84, -35944.20, 0.000, 0.000, 0.000, 14:38:50.876
44, -17869.37, -15518.35, 29841.86, 17285.34, -74180.79, -40946.94, -105805.22, -35776.20, 0.000, 0.000, 0.000, 14:38:50.876
45, -17870.73, -15834.09, 29841.28, 17257.24, -74214.85, -40966.99, -105962.53, -36063.15, 0.000, 0.000, 0.000, 14:38:50.877
46, -17868.16, -15809.01, 29832.04, 17272.73, -74189.37, -40964.42, -106140.77, -36225.79, 0.000, 0.000, 0.000, 14:38:50.877
47, -17861.88, -15536.18, 29837.86, 17292.85, -74167.87, -40948.17, -106023.06, -35987.38, 0.000, 0.000, 0.000, 14:38:50.877
48, -17858.24, -15494.41, 29848.47, 17292.94, -74171.63, -40945.64, -105801.87, -35752.33, 0.004, -0.018, 1.006, 14:38:50.877
49, -17854.97, -15779.71, 29862.00, 17267.82, -74203.45, -40956.35, -105886.98, -35966.39, 0.000, 0.000, 0.000, 14:38:50.877
50, -17864.70, -15859.39, 29841.32, 17265.63, -74197.69, -40966.68, -106101.80, -36220.82, 0.000, 0.000, 0.000, 14:38:50.878
51, -17872.50, -15565.96, 29833.79, 17279.87, -74179.24, -40958.05, -106011.17, -36037.61, 0.000, 0.000, 0.000, 14:38:50.878
52, -17864.99, -15496.55, 29844.32, 17289.72, -74174.41, -40948.21, -105801.09, -35779.31, 0.000, 0.000, 0.000, 14:38:50.878
53, -17856.14, -15727.04, 29853.10, 17269.43, -74203.30, -40960.11, -105815.14, -35896.05, 0.000, 0.000, 0.000, 14:38:50.878
54, -17852.47, -15905.55, 29847.07, 17268.71, -74199.16, -40972.02, -106068.95, -36207.97, 0.000, 0.000, 0.000, 14:38:50.879
55, -17860.92, -15605.74, 29832.34, 17287.13, -74178.55, -40968.69, -106028.34, -36077.50, 0.000, 0.000, 0.000, 14:38:50.879
56, -17862.84, -15489.02, 29834.30, 17286.59, -74180.20, -40954.81, -105826.48, -35823.81, 0.000, 0.000, 0.000, 14:38:50.879
57, -17865.86, -15669.27, 29835.58, 17259.41, -74211.74, -40965.58, -105784.41, -35865.56, 0.000, 0.000, 0.000, 14:38:50.879
58, -17860.41, -15933.87, 29833.39, 17253.47, -74217.20, -40976.94, -106053.59, -36208.46, 0.002, -0.020, 1.014, 14:38:50.879
59, -17860.81, -15662.67, 29828.29, 17283.69, -74180.27, -40959.10, -106065.48, -36133.65, 0.000, 0.000, 0.000, 14:38:50.880
60, -17864.43, -15480.57, 29834.91, 17291.80, -74175.31, -40949.94, -105853.79, -35856.42, 0.000, 0.000, 0.000, 14:38:50.880
61, -17861.28, -15582.61, 29846.26, 17279.73, -74190.60, -40951.70, -105727.01, -35795.38, 0.000, 0.000, 0.000, 14:38:50.880
62, -17858.15, -15890.70, 29849.61, 17259.01, -74210.76, -40964.31, -105961.44, -36149.14, 0.000, 0.000, 0.000, 14:38:50.880
63, -17858.08, -15707.89, 29837.14, 17281.83, -74178.66, -40953.56, -106054.76, -36179.38, 0.000, 0.000, 0.000, 14:38:50.880
64, -17858.19, -15497.96, 29837.16, 17288.60, -74172.72, -40948.13, -105881.59, -35919.05, 0.000, 0.000, 0.000, 14:38:50.880
65, -17849.90, -15548.41, 29851.78, 17285.34, -74182.76, -40950.83, -105719.27, -35777.96, 0.000, 0.000, 0.000, 14:38:50.881
66, -17848.02, -15867.75, 29858.49, 17267.15, -74204.95, -40960.98, -105911.97, -36088.95, 0.000, 0.000, 0.000, 14:38:50.881
67, -17864.34, -15745.51, 29836.58, 17282.68, -74182.30, -40959.28, -106025.98, -36186.04, 0.000, 0.000, 0.000, 14:38:50.881
68, -17867.34, -15485.85, 29832.60, 17291.38, -74174.89, -40950.88, -105860.74, -35941.02, 0.002, -0.016, 1.012, 14:38:50.881
69, -17858.69, -15480.79, 29845.68, 17296.29, -74173.86, -40944.80, -105652.11, -35746.74, 0.000, 0.000, 0.000, 14:38:50.881
70, -17860.23, -15801.99, 29855.69, 17267.71, -74205.91, -40960.51, -105797.66, -36027.12, 0.000, 0.000, 0.000, 14:38:50.881
71, -17867.45, -15784.09, 29840.49, 17278.63, -74185.08, -40962.97, -105966.35, -36204.50, 0.000, 0.000, 0.000, 14:38:50.882
72, -17868.01, -15481.33, 29842.24, 17293.88, -74167.89, -40950.27, -105820.71, -35973.88, 0.000, 0.000, 0.000, 14:38:50.882
73, -17859.33, -15468.86, 29851.85, 17292.90, -74175.02, -40946.63, -105641.05, -35763.41, 0.000, 0.000, 0.000, 14:38:50.882
74, -17859.24, -15761.02, 29858.55, 17265.13, -74206.76, -40956.33, -105740.78, -35969.03, 0.000, 0.000, 0.000, 14:38:50.882
75, -17866.11, -15847.97, 29841.12, 17265.36, -74197.30, -40966.10, -105963.36, -36231.95, 0.000, 0.000, 0.000, 14:38:50.889
76, -17874.89, -15508.06, 29830.66, 17283.96, -74175.09, -40956.31, -105837.95, -36028.20, 0.000, 0.000, 0.000, 14:38:50.890
77, -17868.34, -15436.65, 29847.65, 17289.59, -74172.07, -40947.81, -105630.18, -35775.57, 0.000, 0.000, 0.000, 14:38:50.890
78, -17864.65, -15668.46, 29852.23, 17261.78, -74205.17, -40963.64, -105644.69, -35888.61, 0.000, -0.016, 1.018, 14:38:50.890
79, -17853.88, -15875.82, 29854.91, 17266.81, -74192.99, -40955.46, -105913.88, -36214.00, 0.000, 0.000, 0.000, 14:38:50.890
80, -17854.89, -15575.05, 29847.04, 17292.18, -74162.80, -40940.28, -105879.18, -36086.36, 0.000, 0.000, 0.000, 14:38:50.890
81, -17853.70, -15444.16, 29855.13, 17293.83, -74163.55, -40935.97, -105675.45, -35822.54, 0.000, 0.000, 0.000, 14:38:50.890
82, -17857.28, -15585.76, 29858.73, 17276.76, -74189.93, -40949.42, -105592.92, -35829.89, 0.000, 0.000, 0.000, 14:38:50.891
83, -17863.56, -15857.02, 29856.05, 17260.60, -74202.80, -40959.73, -105844.56, -36183.52, 0.000, 0.000, 0.000, 14:38:50.891
84, -17868.83, -15609.09, 29843.13, 17286.17, -74172.09, -40951.90, -105873.55, -36133.14, 0.000, 0.000, 0.000, 14:38:50.891
85, -17870.02, -15443.85, 29844.25, 17289.30, -74172.23, -40943.72, -105689.15, -35865.92, 0.000, 0.000, 0.000, 14:38:50.891
86, -17867.04, -15545.62, 29847.51, 17277.41, -74188.92, -40946.47, -105567.76, -35787.80, 0.000, 0.000, 0.000, 14:38:50.891
87, -17860.63, -15877.99, 29849.68, 17261.25, -74205.89, -40959.05, -105822.68, -36145.59, 0.000, 0.000, 0.000, 14:38:50.891
88, -17868.36, -15682.25, 29829.68, 17288.20, -74172.95, -40957.52, -105893.89, -36165.84, 0.002, -0.018, 1.010, 14:38:50.891
