%OpenBCI Raw EEG Data
%
%Sample Rate = 250.0 Hz
%First Column = SampleIndex
%Last Column = Timestamp 
%Other Columns = EEG data in microvolts followed by Accel Data (in G) interleaved with Aux Data
0, -6976.11, -11534.48, 30713.82, 21279.04, -68818.02, -30326.49, -187500.02, -39541.15, 0.006, -0.010, 0.498, 14:57:32.796
1, -6981.81, -11740.30, 30704.43, 21281.90, -68815.59, -30329.71, -187500.02, -39751.84, 0.000, 0.000, 0.000, 14:57:32.797
2, -6996.86, -11416.91, 30683.11, 21297.17, -68788.99, -30322.33, -187500.02, -39595.38, 0.000, 0.000, 0.000, 14:57:32.797
3, -6987.16, -11288.17, 30698.15, 21294.28, -68788.61, -30300.98, -187500.02, -39421.64, 0.000, 0.000, 0.000, 14:57:32.797
4, -6968.71, -11497.16, 30723.57, 21284.47, -68806.96, -30297.97, -187500.02, -39501.07, 0.000, 0.000, 0.000, 14:57:32.797
5, -6975.17, -11788.26, 30715.07, 21274.68, -68821.42, -30316.68, -187500.02, -39748.04, 0.000, 0.000, 0.000, 14:57:32.797
6, -6988.25, -11484.50, 30687.85, 21300.27, -68787.96, -30321.77, -187500.02, -39620.28, 0.000, 0.000, 0.000, 14:57:32.797
7, -6981.41, -11273.75, 30697.24, 21302.02, -68784.90, -30311.07, -187500.02, -39423.80, 0.008, -0.014, 0.748, 14:57:32.797
8, -6974.71, -11393.40, 30708.79, 21289.52, -68804.03, -30315.54, -187500.02, -39439.36, 0.000, 0.000, 0.000, 14:57:32.797
9, -6967.64, -11749.55, 30711.07, 21278.70, -68819.03, -30314.42, -187500.02, -39720.32, 0.000, 0.000, 0.000, 14:57:32.797
10, -6989.70, -11545.68, 30678.64, 21298.60, -68785.84, -30323.87, -187500.02, -39654.05, 0.000, 0.000, 0.000, 14:57:32.797
11, -6992.54, -11273.75, 30682.55, 21298.64, -68781.73, -30323.76, -187500.02, -39443.94, 0.000, 0.000, 0.000, 14:57:32.798
12, -6974.35, -11347.56, 30707.81, 21297.41, -68788.30, -30315.94, -187500.02, -39400.40, 0.000, 0.000, 0.000, 14:57:32.798
13, -6977.21, -11697.92, 30714.27, 21269.00, -68820.33, -30322.13, -187500.02, -39668.78, 0.000, 0.000, 0.000, 14:57:32.798
14, -6982.08, -11611.42, 30704.77, 21292.96, -68786.09, -30314.15, -187500.02, -39686.57, 0.000, 0.000, 0.000, 14:57:32.798
15, -6991.29, -11300.06, 30699.25, 21296.34, -68774.55, -30311.27, -187500.02, -39472.53, 0.000, 0.000, 0.000, 14:57:32.798
16, -6980.09, -11307.68, 30711.50, 21291.13, -68783.52, -30311.98, -187500.02, -39388.13, 0.000, 0.000, 0.000, 14:57:32.798
17, -6970.41, -11626.35, 30719.66, 21273.47, -68813.87, -30321.79, -187500.02, -39625.53, 0.006, -0.016, 0.884, 14:57:32.798
18, -6972.22, -11657.82, 30710.69, 21292.38, -68790.71, -30317.68, -187500.02, -39725.55, 0.000, 0.000, 0.000, 14:57:32.798
19, -6986.84, -11311.03, 30695.92, 21299.07, -68774.59, -30320.52, -187500.02, -39512.00, 0.000, 0.000, 0.000, 14:57:32.798
20, -6985.68, -11263.49, 30702.31, 21291.02, -68783.96, -30321.95, -187500.02, -39383.37, 0.000, 0.000, 0.000, 14:57:32.799
21, -6971.06, -11558.67, 30722.11, 21276.00, -68806.06, -30316.36, -187500.02, -39570.21, 0.000, 0.000, 0.000, 14:57:32.799
22, -6979.42, -11690.45, 30704.68, 21280.27, -68796.99, -30330.18, -187500.02, -39736.06, 0.000, 0.000, 0.000, 14:57:32.799
23, -6990.04, -11347.78, 30687.09, 21295.24, -68773.27, -30336.26, -187500.02, -39550.14, 0.000, 0.000, 0.000, 14:57:32.799
24, -6986.28, -11246.68, 30697.59, 21289.68, -68777.19, -30325.37, -187500.02, -39391.26, 0.000, 0.000, 0.000, 14:57:32.799
25, -6975.20, -11462.11, 30714.45, 21277.83, -68799.92, -30326.60, -187500.02, -39511.51, 0.000, 0.000, 0.000, 14:57:32.799
26, -6984.83, -11699.19, 30700.54, 21273.27, -68810.20, -30352.24, -187500.02, -39745.56, 0.000, 0.000, 0.000, 14:57:32.799
27, -6993.46, -11359.80, 30687.56, 21297.75, -68774.21, -30336.90, -187500.02, -39588.34, 0.010, -0.016, 0.940, 14:57:32.799
28, -6977.10, -11221.42, 30710.58, 21303.42, -68767.02, -30312.59, -187500.02, -39419.20, 0.000, 0.000, 0.000, 14:57:32.799
29, -6967.31, -11397.91, 30723.05, 21293.86, -68786.87, -30313.35, -187500.02, -39485.16, 0.000, 0.000, 0.000, 14:57:32.799
30, -6980.05, -11694.54, 30704.90, 21273.25, -68812.77, -30329.44, -187500.02, -39747.46, 0.000, 0.000, 0.000, 14:57:32.799
31, -6993.91, -11435.26, 30686.55, 21295.15, -68778.93, -30325.21, -187500.02, -39645.87, 0.000, 0.000, 0.000, 14:57:32.799
32, -6986.08, -11220.75, 30697.46, 21301.39, -68768.11, -30318.73, -187500.02, -39437.11, 0.000, 0.000, 0.000, 14:57:32.800
33, -6978.75, -11325.87, 30712.08, 21290.46, -68784.30, -30322.58, -187500.02, -39429.97, 0.000, 0.000, 0.000, 14:57:32.800
34, -6989.48, -11648.61, 30702.56, 21261.29, -68817.04, -30347.05, -187500.02, -39702.29, 0.000, 0.000, 0.000, 14:57:32.800
35, -7002.73, -11446.55, 30684.61, 21277.61, -68785.66, -30340.26, -187500.02, -39660.35, 0.000, 0.000, 0.000, 14:57:32.800
36, -6987.27, -11198.69, 30701.73, 21291.62, -68770.13, -30317.77, -187500.02, -39463.48, 0.008, -0.018, 0.980, 14:57:32.800
37, -6976.65, -11260.99, 30721.53, 21288.92, -68776.12, -30311.33, -187500.02, -39414.57, 0.000, 0.000, 0.000, 14:57:32.800
38, -6978.75, -11590.85, 30727.52, 21265.00, -68805.08, -30324.61, -187500.02, -39665.20, 0.000, 0.000, 0.000, 14:57:32.800
39, -7003.63, -11494.81, 30692.86, 21274.59, -68787.29, -30340.97, -187500.02, -39693.95, 0.000, 0.000, 0.000, 14:57:32.800
40, -7006.96, -11166.51, 30690.91, 21275.60, -68777.52, -30332.66, -187500.02, -39491.24, 0.000, 0.000, 0.000, 14:57:32.800
41, -6994.13, -11188.30, 30704.03, 21273.61, -68785.19, -30338.16, -187500.02, -39411.51, 0.000, 0.000, 0.000, 14:57:32.800
42, -6991.09, -11510.68, 30710.20, 21254.18, -68816.13, -30352.51, -187500.02, -39634.58, 0.000, 0.000, 0.000, 14:57:32.800
43, -6995.22, -11563.90, 30707.05, 21271.15, -68791.38, -30346.16, -187500.02, -39744.39, 0.000, 0.000, 0.000, 14:57:32.800
44, -7004.19, -11237.88, 30700.10, 21278.39, -68772.90, -30338.51, -187500.02, -39545.18, 0.000, 0.000, 0.000, 14:57:32.800
45, -6995.13, -11180.88, 30717.02, 21280.60, -68770.13, -30324.37, -187500.02, -39406.17, 0.000, 0.000, 0.000, 14:57:32.800
46, -6989.52, -11429.27, 30724.68, 21263.33, -68800.84, -30336.99, -187500.02, -39572.24, 0.004, -0.018, 0.994, 14:57:32.800
47, -6991.65, -11581.65, 30717.96, 21266.63, -68793.73, -30337.89, -187500.02, -39751.88, 0.000, 0.000, 0.000, 14:57:32.801
48, -6999.47, -11243.55, 30709.02, 21284.92, -68761.48, -30330.18, -187500.02, -39567.82, 0.000, 0.000, 0.000, 14:57:32.801
49, -6990.17, -11139.01, 30718.67, 21283.22, -68763.73, -30324.54, -187500.02, -39409.63, 0.000, 0.000, 0.000, 14:57:32.801
50, -6984.23, -11353.95, 30724.75, 21265.05, -68790.04, -30333.69, -187500.02, -39521.26, 0.000, 0.000, 0.000, 14:57:32.801
51, -6989.75, -11602.10, 30716.62, 21257.63, -68802.40, -30346.52, -187500.02, -39756.33, 0.000, 0.000, 0.000, 14:57:32.801
52, -7004.16, -11300.66, 30699.07, 21274.32, -68773.21, -30350.58, -187500.02, -39616.61, 0.000, 0.000, 0.000, 14:57:32.801
53, -7005.37, -11129.80, 30696.50, 21272.38, -68776.00, -30350.74, -187500.02, -39431.65, 0.000, 0.000, 0.000, 14:57:32.801
54, -6999.49, -11293.38, 30707.38, 21259.21, -68799.20, -30354.85, -187500.02, -39486.64, 0.000, 0.000, 0.000, 14:57:32.801
55, -7001.15, -11605.38, 30711.92, 21245.24, -68814.00, -30359.23, -187500.02, -39745.98, 0.000, 0.000, 0.000, 14:57:32.801
56, -7007.36, -11361.03, 30696.95, 21276.58, -68772.09, -30348.66, -187500.02, -39653.20, 0.002, -0.014, 1.004, 14:57:32.801
57, -7001.97, -11134.32, 30699.65, 21282.79, -68765.23, -30341.06, -187500.02, -39449.93, 0.000, 0.000, 0.000, 14:57:32.801
58, -6990.40, -11237.52, 30714.16, 21273.90, -68778.69, -30339.63, -187500.02, -39439.63, 0.000, 0.000, 0.000, 14:57:32.801
59, -6998.76, -11564.81, 30710.31, 21247.32, -68811.72, -30359.95, -187500.02, -39703.18, 0.000, 0.000, 0.000, 14:57:32.801
60, -7006.80, -11398.81, 30696.19, 21271.51, -68780.05, -30356.28, -187500.02, -39678.17, 0.000, 0.000, 0.000, 14:57:32.801
61, -7000.16, -11131.93, 30699.96, 21281.18, -68766.05, -30339.03, -187500.02, -39477.85, 0.000, 0.000, 0.000, 14:57:32.801
62, -6979.06, -11200.93, 30725.60, 21281.77, -68768.47, -30320.54, -187500.02, -39423.11, 0.000, 0.000, 0.000, 14:57:32.801
63, -6984.45, -11543.78, 30727.81, 21258.86, -68798.29, -30340.17, -187500.02, -39672.47, 0.000, 0.000, 0.000, 14:57:32.802
64, -7012.17, -11459.72, 30696.30, 21263.41, -68782.93, -30362.97, -187500.02, -39713.15, 0.000, 0.000, 0.000, 14:57:32.802
65, -7013.49, -11128.17, 30695.89, 21270.32, -68772.49, -30355.93, -187500.02, -39506.95, 0.000, 0.000, 0.000, 14:57:32.802
66, -6991.38, -11128.80, 30724.35, 21275.64, -68770.37, -30334.71, -187500.02, -39412.52, 0.004, -0.018, 1.006, 14:57:32.802
67, -6986.17, -11445.93, 30732.84, 21251.21, -68802.22, -30347.88, -187500.02, -39634.34, 0.000, 0.000, 0.000, 14:57:32.802
68, -6994.04, -11519.89, 30718.29, 21260.89, -68786.75, -30352.73, -187500.02, -39759.35, 0.000, 0.000, 0.000, 14:57:32.802
69, -7004.97, -11182.22, 30706.89, 21269.20, -68766.46, -30347.77, -187500.02, -39563.95, 0.000, 0.000, 0.000, 14:57:32.802
70, -6995.94, -11136.49, 30719.25, 21267.30, -68771.09, -30343.52, -187500.02, -39433.04, 0.000, 0.000, 0.000, 14:57:32.802
71, -6991.13, -11399.41, 30727.34, 21251.57, -68797.91, -30357.69, -187500.02, -39588.45, 0.000, 0.000, 0.000, 14:57:32.802
72, -6998.53, -11557.62, 30713.33, 21254.61, -68794.95, -30366.86, -187500.02, -39771.51, 0.000, 0.000, 0.000, 14:57:32.803
73, -7005.26, -11227.42, 30702.67, 21272.78, -68770.91, -30362.29, -187500.02, -39605.55, 0.000, 0.000, 0.000, 14:57:32.803
74, -6994.37, -11121.38, 30720.59, 21274.93, -68768.98, -30352.80, -187500.02, -39442.91, 0.000, 0.000, 0.000, 14:57:32.803
75, -6986.53, -11334.01, 30732.37, 21258.70, -68793.48, -30360.53, -187500.02, -39544.70, 0.000, 0.000, 0.000, 14:57:32.803
76, -6996.34, -11574.94, 30715.70, 21250.45, -68803.95, -30369.16, -187500.02, -39773.45, 0.000, -0.016, 1.006, 14:57:32.803
77, -7005.82, -11280.95, 30702.91, 21270.21, -68773.32, -30365.27, -187500.02, -39647.90, 0.000, 0.000, 0.000, 14:57:32.803
78, -7003.23, -11134.34, 30707.34, 21265.81, -68776.29, -30361.36, -187500.02, -39476.29, 0.000, 0.000, 0.000, 14:57:32.803
79, -7002.82, -11280.61, 30712.97, 21248.44, -68797.95, -30362.68, -187500.02, -39507.47, 0.000, 0.000, 0.000, 14:57:32.803
80, -7010.38, -11586.61, 30703.54, 21228.39, -68821.27, -30381.85, -187500.02, -39769.95, 0.000, 0.000, 0.000, 14:57:32.803
81, -7006.96, -11375.21, 30701.71, 21261.16, -68780.52, -30371.46, -187500.02, -39702.39, 0.000, 0.000, 0.000, 14:57:32.803
82, -7010.02, -11156.92, 30702.78, 21261.58, -68777.66, -30373.23, -187500.02, -39506.75, 0.000, 0.000, 0.000, 14:57:32.803
83, -6998.60, -11263.92, 30718.54, 21253.20, -68788.81, -30360.20, -187500.02, -39494.26, 0.000, 0.000, 0.000, 14:57:32.803
84, -6996.56, -11615.51, 30721.64, 21236.88, -68814.85, -30367.32, -187500.02, -39761.72, 0.000, 0.000, 0.000, 14:57:32.804
85, -7009.86, -11487.54, 30700.43, 21257.60, -68784.81, -30368.17, -187500.02, -39754.18, 0.000, 0.000, 0.000, 14:57:32.804
86, -7018.83, -11204.19, 30694.76, 21258.10, -68778.75, -30365.76, -187500.02, -39551.23, 0.000, -0.014, 1.008, 14:57:32.804
87, -7005.51, -11245.77, 30717.24, 21255.84, -68782.44, -30350.14, -187500.02, -39483.93, 0.000, 0.000, 0.000, 14:57:32.804
88, -6999.58, -11574.67, 30728.86, 21237.82, -68807.59, -30355.57, -187500.02, -39725.48, 0.000, 0.000, 0.000, 14:57:32.804
89, -7012.95, -11546.51, 30707.34, 21253.18, -68786.69, -30371.91, -187500.02, -39788.88, 0.000, 0.000, 0.000, 14:57:32.804
90, -7015.65, -11225.47, 30705.28, 21259.44, -68771.47, -30364.08, -187500.02, -39586.59, 0.000, 0.000, 0.000, 14:57:32.804
91, -7001.71, -11218.43, 30720.57, 21260.04, -68773.59, -30358.12, -187500.02, -39479.89, 0.000, 0.000, 0.000, 14:57:32.804
92, -6996.43, -11527.06, 30729.31, 21239.59, -68804.57, -30368.02, -187500.02, -39684.87, 0.000, 0.000, 0.000, 14:57:32.804
93, -7009.48, -11619.91, 30711.92, 21248.82, -68793.05, -30375.10, -187500.02, -39816.55, 0.000, 0.000, 0.000, 14:57:32.804
94, -7015.03, -11278.00, 30704.66, 21264.73, -68772.34, -30371.46, -187500.02, -39618.11, 0.000, 0.000, 0.000, 14:57:32.804
95, -7011.59, -11221.07, 30714.56, 21258.63, -68779.53, -30365.43, -187500.02, -39474.88, 0.000, 0.000, 0.000, 14:57:32.804
96, -6998.15, -11495.10, 30728.93, 21239.86, -68810.09, -30367.73, -187500.02, -39633.38, 0.000, -0.014, 1.008, 14:57:32.804
97, -7004.75, -11713.74, 30716.95, 21239.30, -68808.91, -30379.66, -187500.02, -39845.67, 0.000, 0.000, 0.000, 14:57:32.804
98, -7017.08, -11368.75, 30700.19, 21256.71, -68779.18, -30379.57, -187500.02, -39668.78, 0.000, 0.000, 0.000, 14:57:32.804
99, -7014.80, -11232.53, 30707.52, 21252.46, -68783.52, -30379.80, -187500.02, -39498.19, 0.000, 0.000, 0.000, 14:57:32.804
100, -6994.62, -11431.38, 30735.12, 21245.78, -68800.70, -30369.13, -187500.02, -39593.45, 0.000, 0.000, 0.000, 14:57:32.805
101, -6997.41, -11719.22, 30729.15, 21238.18, -68810.67, -30378.61, -187500.02, -39847.44, 0.000, 0.000, 0.000, 14:57:32.805
102, -7009.64, -11419.75, 30708.19, 21260.73, -68775.02, -30375.62, -187500.02, -39723.72, 0.000, 0.000, 0.000, 14:57:32.805
103, -7002.85, -11241.83, 30719.48, 21261.18, -68770.64, -30359.14, -187500.02, -39541.06, 0.000, 0.000, 0.000, 14:57:32.805
104, -6989.03, -11389.58, 30734.97, 21257.29, -68784.79, -30358.94, -187500.02, -39565.25, 0.000, 0.000, 0.000, 14:57:32.805
105, -6993.48, -11706.17, 30728.66, 21241.71, -68806.20, -30381.54, -187500.02, -39824.55, 0.000, 0.000, 0.000, 14:57:32.805
106, -7008.93, -11484.79, 30705.46, 21260.49, -68777.34, -30378.72, -187500.02, -39761.27, -0.006, -0.018, 1.012, 14:57:32.805
107, -7002.96, -11243.46, 30721.22, 21266.99, -68767.30, -30361.69, -187500.02, -39556.57, 0.000, 0.000, 0.000, 14:57:32.805
108, -6996.61, -11314.18, 30730.81, 21262.79, -68779.53, -30362.01, -187500.02, -39519.71, 0.000, 0.000, 0.000, 14:57:32.805
109, -6993.35, -11683.01, 30732.60, 21243.52, -68808.32, -30369.02, -187500.02, -39799.80, 0.000, 0.000, 0.000, 14:57:32.805
110, -7012.03, -11565.73, 30706.60, 21260.69, -68779.38, -30376.51, -187500.02, -39807.81, 0.000, 0.000, 0.000, 14:57:32.805
111, -7008.99, -11273.46, 30711.14, 21267.82, -68765.27, -30369.74, -187500.02, -39595.49, 0.000, 0.000, 0.000, 14:57:32.805
112, -7004.50, -11273.50, 30721.09, 21260.93, -68774.21, -30365.78, -187500.02, -39498.08, 0.000, 0.000, 0.000, 14:57:32.805
113, -6998.78, -11605.34, 30731.14, 21233.02, -68811.67, -30377.34, -187500.02, -39747.14, 0.000, 0.000, 0.000, 14:57:32.805
114, -7006.62, -11614.44, 30714.40, 21253.74, -68786.24, -30380.02, -187500.02, -39830.36, 0.000, 0.000, 0.000, 14:57:32.805
115, -7016.01, -11286.31, 30710.02, 21261.27, -68768.02, -30373.18, -187500.02, -39625.24, 0.000, 0.000, 0.000, 14:57:32.805
116, -7009.77, -11275.78, 30718.63, 21255.50, -68775.53, -30368.26, -187500.02, -39513.17, 0.002, -0.018, 1.014, 14:57:32.805
117, -6997.64, -11571.07, 30730.67, 21241.00, -68801.28, -30373.87, -187500.02, -39703.45, 0.000, 0.000, 0.000, 14:57:32.806
118, -7016.26, -11675.19, 30704.03, 21242.83, -68798.40, -30392.65, -187500.02, -39855.33, 0.000, 0.000, 0.000, 14:57:32.806
119, -7022.27, -11316.82, 30697.73, 21262.30, -68769.86, -30379.98, -187500.02, -39660.35, 0.000, 0.000, 0.000, 14:57:32.806
120, -7007.14, -11234.23, 30721.91, 21266.75, -68765.23, -30360.44, -187500.02, -39510.73, 0.000, 0.000, 0.000, 14:57:33.273
121, -6998.42, -11495.17, 30742.16, 21250.03, -68792.52, -30365.63, -187500.02, -39658.57, 0.000, 0.000, 0.000, 14:57:33.273
122, -7008.61, -11701.94, 30721.87, 21247.90, -68797.26, -30386.21, -187500.02, -39865.54, 0.000, 0.000, 0.000, 14:57:33.273
123, -7019.01, -11373.51, 30703.83, 21263.97, -68771.64, -30386.84, -187500.02, -39712.37, 0.000, 0.000, 0.000, 14:57:33.273
124, -7013.22, -11217.20, 30715.12, 21265.79, -68767.58, -30370.50, -187500.02, -39530.82, 0.000, 0.000, 0.000, 14:57:33.273
125, -6996.72, -11397.65, 30735.06, 21253.96, -68782.95, -30361.31, -187500.02, -39607.56, 0.000, 0.000, 0.000, 14:57:33.273
126, -7000.68, -11703.33, 30728.75, 21241.76, -68798.17, -30381.54, -187500.02, -39869.97, 0.002, -0.014, 1.012, 14:57:33.273
127, -7009.31, -11424.33, 30713.04, 21269.47, -68761.52, -30378.03, -187500.02, -39752.11, 0.000, 0.000, 0.000, 14:57:33.273
128, -7003.65, -11215.10, 30725.09, 21274.93, -68753.45, -30355.93, -187500.02, -39551.25, 0.000, 0.000, 0.000, 14:57:33.274
129, -6997.19, -11326.77, 30734.50, 21263.37, -68775.55, -30361.31, -187500.02, -39560.82, 0.000, 0.000, 0.000, 14:57:33.274
130, -6998.76, -11663.30, 30729.38, 21241.69, -68804.84, -30377.27, -187500.02, -39838.90, 0.000, 0.000, 0.000, 14:57:33.274
131, -7014.29, -11461.50, 30705.66, 21262.34, -68774.86, -30387.96, -187500.02, -39785.07, 0.000, 0.000, 0.000, 14:57:33.274
132, -7019.65, -11211.54, 30710.36, 21260.13, -68770.52, -30385.90, -187500.02, -39581.96, 0.000, 0.000, 0.000, 14:57:33.274
133, -7011.38, -11290.11, 30725.53, 21251.35, -68779.60, -30377.52, -187500.02, -39543.57, 0.000, 0.000, 0.000, 14:57:33.274
134, -7009.19, -11643.49, 30724.55, 21230.22, -68809.82, -30389.79, -187500.02, -39805.68, 0.000, 0.000, 0.000, 14:57:33.274
135, -7016.46, -11553.19, 30705.35, 21256.24, -68780.61, -30397.16, -187500.02, -39824.53, 0.000, 0.000, 0.000, 14:57:33.274
136, -7014.92, -11259.78, 30710.47, 21265.14, -68767.76, -30389.25, -187500.02, -39617.48, 0.006, -0.018, 1.014, 14:57:33.274
137, -7007.85, -11276.43, 30718.02, 21257.63, -68778.80, -30386.95, -187500.02, -39528.63, 0.000, 0.000, 0.000, 14:57:33.274
138, -7006.15, -11608.18, 30722.83, 21234.00, -68812.81, -30392.56, -187500.02, -39769.25, 0.000, 0.000, 0.000, 14:57:33.274
139, -7020.88, -11624.61, 30704.61, 21244.06, -68796.23, -30400.49, -187500.02, -39860.82, 0.000, 0.000, 0.000, 14:57:33.274
140, -7024.57, -11295.92, 30703.56, 21257.27, -68776.85, -30388.43, -187500.02, -39657.34, 0.000, 0.000, 0.000, 14:57:33.274
141, -7021.00, -11252.81, 30713.06, 21252.11, -68782.33, -30379.06, -187500.02, -39525.50, 0.000, 0.000, 0.000, 14:57:33.274
142, -7009.55, -11565.71, 30725.24, 21232.10, -68812.70, -30383.02, -187500.02, -39726.07, 0.000, 0.000, 0.000, 14:57:33.275
143, -7023.83, -11701.74, 30706.15, 21241.44, -68801.48, -30392.89, -187500.02, -39883.98, 0.000, 0.000, 0.000, 14:57:33.275
144, -7038.61, -11358.96, 30688.92, 21250.50, -68783.34, -30397.97, -187500.02, -39698.73, 0.000, 0.000, 0.000, 14:57:33.275
145, -7031.12, -11269.88, 30697.62, 21246.45, -68787.70, -30391.31, -187500.02, -39542.69, 0.010, -0.018, 1.010, 14:57:33.275
146, -7016.30, -11515.08, 30713.29, 21233.22, -68808.86, -30392.40, -187500.02, -39670.07, 0.000, 0.000, 0.000, 14:57:33.275
147, -7034.47, -11744.10, 30694.38, 21221.48, -68820.33, -30418.24, -187500.02, -39886.75, 0.000, 0.000, 0.000, 14:57:33.275
148, -7046.45, -11436.45, 30683.60, 21240.59, -68794.22, -30411.49, -187500.02, -39744.93, 0.000, 0.000, 0.000, 14:57:33.275
149, -7024.64, -11296.26, 30710.92, 21254.43, -68781.61, -30388.25, -187500.02, -39566.30, 0.000, 0.000, 0.000, 14:57:33.275
150, -7015.88, -11459.54, 30728.13, 21241.02, -68801.38, -30396.07, -187500.02, -39620.28, 0.000, 0.000, 0.000, 14:57:33.275
151, -7020.37, -11777.16, 30725.13, 21223.61, -68821.48, -30410.53, -187500.02, -39894.38, 0.000, 0.000, 0.000, 14:57:33.275
152, -7033.40, -11530.79, 30703.90, 21247.93, -68785.91, -30399.29, -187500.02, -39798.49, 0.000, 0.000, 0.000, 14:57:33.275
153, -7038.09, -11317.51, 30699.38, 21243.63, -68787.09, -30401.61, -187500.02, -39597.54, 0.000, 0.000, 0.000, 14:57:33.275
154, -7024.30, -11423.13, 30716.26, 21236.46, -68797.64, -30395.55, -187500.02, -39591.24, 0.000, 0.000, 0.000, 14:57:33.275
155, -7030.23, -11753.31, 30712.59, 21215.25, -68825.73, -30409.62, -187500.02, -39864.87, 0.008, -0.020, 1.008, 14:57:33.275
156, -7044.67, -11564.43, 30691.98, 21236.15, -68796.50, -30412.10, -187500.02, -39823.61, 0.000, 0.000, 0.000, 14:57:33.275
157, -7036.13, -11312.04, 30704.08, 21244.84, -68781.84, -30391.87, -187500.02, -39619.74, 0.000, 0.000, 0.000, 14:57:33.275
158, -7024.57, -11360.54, 30716.06, 21244.66, -68787.96, -30384.96, -187500.02, -39560.78, 0.000, 0.000, 0.000, 14:57:33.276
159, -7017.53, -11707.46, 30722.56, 21228.08, -68815.30, -30397.66, -187500.02, -39818.25, 0.000, 0.000, 0.000, 14:57:33.276
160, -7036.19, -11633.41, 30696.66, 21241.31, -68794.09, -30416.34, -187500.02, -39848.62, 0.000, 0.000, 0.000, 14:57:33.276
161, -7044.31, -11318.39, 30691.27, 21243.50, -68786.24, -30423.74, -187500.02, -39641.18, 0.000, 0.000, 0.000, 14:57:33.276
162, -7029.44, -11340.76, 30711.01, 21244.48, -68790.04, -30409.08, -187500.02, -39552.13, 0.000, 0.000, 0.000, 14:57:33.276
163, -7026.94, -11670.11, 30717.46, 21224.41, -68818.43, -30414.87, -187500.02, -39773.99, 0.000, 0.000, 0.000, 14:57:33.276
164, -7039.10, -11696.15, 30692.95, 21238.58, -68800.81, -30416.21, -187500.02, -39871.87, 0.000, 0.000, 0.000, 14:57:33.276
165, -7046.16, -11339.44, 30686.57, 21250.70, -68779.47, -30409.86, -187500.02, -39662.75, 0.002, -0.018, 1.006, 14:57:33.276
166, -7034.79, -11281.80, 30706.67, 21252.39, -68778.26, -30393.99, -187500.02, -39526.20, 0.000, 0.000, 0.000, 14:57:33.276
167, -7027.57, -11558.11, 30720.64, 21230.33, -68808.44, -30403.98, -187500.02, -39704.21, 0.000, 0.000, 0.000, 14:57:33.276
168, -7030.79, -11739.45, 30718.58, 21236.57, -68803.07, -30408.90, -187500.02, -39896.97, 0.000, 0.000, 0.000, 14:57:33.276
169, -7040.73, -11409.83, 30702.67, 21256.02, -68775.45, -30404.18, -187500.02, -39718.24, 0.000, 0.000, 0.000, 14:57:33.276
170, -7032.64, -11295.59, 30715.27, 21258.52, -68771.53, -30386.84, -187500.02, -39541.26, 0.000, 0.000, 0.000, 14:57:33.276
171, -7019.45, -11516.22, 30729.69, 21244.93, -68793.59, -30386.03, -187500.02, -39651.39, 0.000, 0.000, 0.000, 14:57:33.276
172, -7029.27, -11762.67, 30714.51, 21233.33, -68804.27, -30406.73, -187500.02, -39883.47, 0.000, 0.000, 0.000, 14:57:33.276
173, -7040.37, -11454.46, 30695.63, 21252.28, -68776.80, -30406.33, -187500.02, -39740.68, 0.000, 0.000, 0.000, 14:57:33.276
174, -7035.93, -11293.80, 30706.02, 21253.11, -68776.65, -30402.24, -187500.02, -39554.74, 0.000, 0.000, 0.000, 14:57:33.277
175, -7026.27, -11452.32, 30721.31, 21242.96, -68795.13, -30407.96, -187500.02, -39601.05, 0.004, -0.024, 1.002, 14:57:33.277
176, -7030.20, -11748.39, 30713.38, 21228.03, -68813.20, -30427.63, -187500.02, -39860.80, 0.000, 0.000, 0.000, 14:57:33.277
177, -7042.63, -11491.57, 30696.66, 21248.55, -68778.88, -30420.43, -187500.02, -39769.43, 0.000, 0.000, 0.000, 14:57:33.277
178, -7033.85, -11270.06, 30711.88, 21254.88, -68767.95, -30399.24, -187500.02, -39563.95, 0.000, 0.000, 0.000, 14:57:33.277
179, -7021.82, -11378.51, 30725.09, 21247.88, -68783.18, -30404.88, -187500.02, -39552.17, 0.000, 0.000, 0.000, 14:57:33.277
180, -7026.58, -11727.36, 30720.75, 21227.56, -68813.06, -30415.45, -187500.02, -39823.68, 0.000, 0.000, 0.000, 14:57:33.277
181, -7038.09, -11569.46, 30707.47, 21247.66, -68784.12, -30406.02, -187500.02, -39805.01, 0.000, 0.000, 0.000, 14:57:33.277
182, -7043.95, -11297.06, 30701.55, 21248.57, -68779.06, -30408.18, -187500.02, -39595.67, 0.000, 0.000, 0.000, 14:57:33.277
183, -7040.40, -11333.27, 30706.09, 21238.13, -68795.91, -30412.77, -187500.02, -39534.18, 0.000, 0.000, 0.000, 14:57:33.277
184, -7032.82, -11666.54, 30716.46, 21214.84, -68825.02, -30418.91, -187500.02, -39788.96, 0.000, 0.000, 0.000, 14:57:33.277
185, -7035.68, -11622.04, 30708.37, 21240.86, -68794.20, -30423.34, -187500.02, -39844.91, 0.010, -0.022, 1.002, 14:57:33.277
186, -7042.50, -11322.19, 30703.36, 21244.86, -68786.15, -30425.66, -187500.02, -39644.04, 0.000, 0.000, 0.000, 14:57:33.277
187, -7034.72, -11330.68, 30716.35, 21239.59, -68793.84, -30413.82, -187500.02, -39538.13, 0.000, 0.000, 0.000, 14:57:33.277
188, -7027.88, -11631.09, 30724.80, 21225.08, -68816.99, -30412.92, -187500.02, -39745.00, 0.000, 0.000, 0.000, 14:57:33.277
189, -7034.16, -11695.80, 30712.26, 21244.39, -68793.82, -30414.93, -187500.02, -39866.08, 0.000, 0.000, 0.000, 14:57:33.277
190, -7049.65, -11339.06, 30698.44, 21251.12, -68777.14, -30421.82, -187500.02, -39660.42, 0.000, 0.000, 0.000, 14:57:33.277
191, -7045.94, -11278.04, 30701.71, 21242.52, -68786.48, -30420.77, -187500.02, -39517.68, 0.000, 0.000, 0.000, 14:57:33.278
192, -7034.76, -11542.37, 30712.03, 21223.41, -68814.60, -30427.03, -187500.02, -39682.64, 0.000, 0.000, 0.000, 14:57:33.278
193, -7034.27, -11729.28, 30702.78, 21229.42, -68809.95, -30439.63, -187500.02, -39885.88, 0.000, 0.000, 0.000, 14:57:33.278
194, -7039.97, -11395.72, 30692.25, 21253.49, -68780.30, -30434.78, -187500.02, -39714.11, 0.000, 0.000, 0.000, 14:57:33.278
195, -7033.47, -11280.88, 30704.41, 21253.33, -68776.61, -30419.47, -187500.02, -39540.35, 0.004, -0.022, 1.008, 14:57:33.278
196, -7023.72, -11478.78, 30723.97, 21239.88, -68794.53, -30408.97, -187500.02, -39629.46, 0.000, 0.000, 0.000, 14:57:33.278
197, -7029.60, -11751.67, 30718.69, 21231.52, -68804.19, -30418.76, -187500.02, -39880.32, 0.000, 0.000, 0.000, 14:57:33.278
198, -7045.94, -11438.77, 30693.77, 21252.98, -68775.33, -30432.05, -187500.02, -39737.98, 0.000, 0.000, 0.000, 14:57:33.278
199, -7047.95, -11263.13, 30694.98, 21244.64, -68781.14, -30423.49, -187500.02, -39551.43, 0.000, 0.000, 0.000, 14:57:33.278
200, -7039.70, -11396.06, 30706.54, 21232.66, -68799.98, -30420.21, -187500.02, -39579.11, 0.000, 0.000, 0.000, 14:57:33.278
201, -7035.37, -11727.49, 30713.06, 21219.43, -68818.02, -30428.93, -187500.02, -39861.96, 0.000, 0.000, 0.000, 14:57:33.278
202, -7048.00, -11494.79, 30692.92, 21244.01, -68781.84, -30431.05, -187500.02, -39785.23, 0.000, 0.000, 0.000, 14:57:33.278
203, -7039.88, -11249.36, 30704.50, 21251.97, -68769.14, -30412.03, -187500.02, -39571.86, 0.000, 0.000, 0.000, 14:57:33.278
204, -7021.71, -11354.46, 30722.76, 21253.42, -68777.08, -30406.62, -187500.02, -39553.63, 0.000, 0.000, 0.000, 14:57:33.278
205, -7025.02, -11689.47, 30718.76, 21231.56, -68808.16, -30430.38, -187500.02, -39821.17, 0.000, -0.018, 1.010, 14:57:33.278
206, -7047.64, -11543.94, 30690.53, 21243.50, -68786.46, -30443.01, -187500.02, -39824.17, 0.000, 0.000, 0.000, 14:57:33.279
207, -7045.60, -11258.64, 30693.97, 21252.48, -68773.21, -30431.09, -187500.02, -39614.91, 0.000, 0.000, 0.000, 14:57:33.279
208, -7036.82, -11287.59, 30706.36, 21247.70, -68779.27, -30424.01, -187500.02, -39529.19, 0.000, 0.000, 0.000, 14:57:33.279
209, -7043.55, -11621.03, 30709.33, 21218.02, -68816.80, -30433.22, -187500.02, -39785.28, 0.000, 0.000, 0.000, 14:57:33.279
210, -7054.59, -11609.45, 30691.20, 21233.17, -68795.67, -30441.58, -187500.02, -39865.36, 0.000, 0.000, 0.000, 14:57:33.279
211, -7063.87, -11272.83, 30679.65, 21241.67, -68780.83, -30443.83, -187500.02, -39651.86, 0.000, 0.000, 0.000, 14:57:33.279
212, -7049.34, -11249.23, 30699.92, 21240.48, -68782.55, -30428.61, -187500.02, -39534.80, 0.000, 0.000, 0.000, 14:57:33.279
213, -7035.14, -11566.40, 30711.47, 21223.45, -68810.54, -30433.51, -187500.02, -39745.25, 0.000, 0.000, 0.000, 14:57:33.279
214, -7047.57, -11654.00, 30690.75, 21232.19, -68800.16, -30450.00, -187500.02, -39889.05, 0.000, 0.000, 0.000, 14:57:33.279
215, -7054.08, -11313.11, 30682.08, 21246.43, -68779.65, -30452.60, -187500.02, -39697.03, 0.002, -0.014, 1.012, 14:57:33.279
216, -7034.94, -11269.35, 30705.78, 21253.33, -68774.93, -30431.23, -187500.02, -39550.58, 0.000, 0.000, 0.000, 14:57:33.279
217, -7036.04, -11518.46, 30712.84, 21233.24, -68804.79, -30438.87, -187500.02, -39692.76, 0.000, 0.000, 0.000, 14:57:33.279
218, -7049.14, -11704.38, 30701.51, 21227.43, -68808.14, -30447.12, -187500.02, -39903.29, 0.000, 0.000, 0.000, 14:57:33.279
219, -7053.63, -11371.18, 30694.11, 21247.79, -68777.63, -30435.95, -187500.02, -39745.40, 0.000, 0.000, 0.000, 14:57:33.279
220, -7043.71, -11244.54, 30711.03, 21248.30, -68774.02, -30422.98, -187500.02, -39565.07, 0.000, 0.000, 0.000, 14:57:33.279
221, -7038.03, -11453.53, 30718.54, 21225.91, -68803.79, -30433.80, -187500.02, -39661.63, 0.000, 0.000, 0.000, 14:57:33.279
222, -7041.09, -11734.91, 30713.33, 21219.47, -68814.27, -30455.28, -187500.02, -39918.00, 0.000, 0.000, 0.000, 14:57:33.279
223, -7051.10, -11439.20, 30701.04, 21244.06, -68777.90, -30451.32, -187500.02, -39792.83, 0.000, 0.000, 0.000, 14:57:33.280
224, -7041.02, -11248.56, 30712.62, 21250.88, -68769.68, -30431.25, -187500.02, -39594.68, 0.000, 0.000, 0.000, 14:57:33.280
225, -7029.91, -11396.44, 30724.93, 21241.04, -68788.16, -30422.53, -187500.02, -39625.89, 0.006, -0.010, 1.012, 14:57:33.280
226, -7026.23, -11730.80, 30727.57, 21232.88, -68801.28, -30429.80, -187500.02, -39898.64, 0.000, 0.000, 0.000, 14:57:33.280
227, -7049.90, -11504.76, 30695.78, 21246.81, -68777.16, -30452.84, -187500.02, -39834.70, 0.000, 0.000, 0.000, 14:57:33.280
228, -7046.45, -11262.35, 30703.45, 21247.32, -68770.98, -30443.77, -187500.02, -39629.64, 0.000, 0.000, 0.000, 14:57:33.281
229, -7035.39, -11349.03, 30720.82, 21240.10, -68778.80, -30427.56, -187500.02, -39595.60, 0.000, 0.000, 0.000, 14:57:33.281
230, -7034.85, -11704.56, 30723.03, 21221.01, -68807.05, -30436.62, -187500.02, -39869.83, 0.000, 0.000, 0.000, 14:57:33.281
231, -7051.55, -11589.76, 30697.10, 21241.33, -68781.57, -30446.85, -187500.02, -39877.84, 0.000, 0.000, 0.000, 14:57:33.281
232, -7051.17, -11318.65, 30695.11, 21245.76, -68771.91, -30444.91, -187500.02, -39676.13, 0.000, 0.000, 0.000, 14:57:33.281
233, -7044.49, -11340.31, 30708.26, 21242.09, -68776.65, -30438.52, -187500.02, -39584.91, 0.000, 0.000, 0.000, 14:57:33.282
234, -7038.18, -11686.54, 30719.66, 21219.31, -68810.49, -30450.70, -187500.02, -39830.36, 0.000, 0.000, 0.000, 14:57:33.282
235, -7049.76, -11699.10, 30694.29, 21231.99, -68791.20, -30457.63, -187500.02, -39919.81, 0.002, -0.014, 0.998, 14:57:33.282
236, -7053.79, -11374.65, 30690.46, 21243.90, -68770.48, -30446.12, -187500.02, -39710.87, 0.000, 0.000, 0.000, 14:57:33.282
237, -7051.86, -11348.27, 30695.89, 21234.89, -68779.60, -30441.76, -187500.02, -39586.93, 0.000, 0.000, 0.000, 14:57:33.282
238, -7040.46, -11652.72, 30718.36, 21215.18, -68807.97, -30436.48, -187500.02, -39788.70, 0.000, 0.000, 0.000, 14:57:33.283
239, -7050.32, -11785.56, 30703.49, 21223.99, -68796.63, -30449.36, -187500.02, -39950.46, 0.000, 0.000, 0.000, 14:57:33.283
240, -7068.00, -11419.98, 30684.90, 21234.96, -68778.15, -30454.36, -187500.02, -39746.16, 0.000, 0.000, 0.000, 14:57:33.756
241, -7054.41, -11337.43, 30695.07, 21236.64, -68779.42, -30452.20, -187500.02, -39595.09, 0.000, 0.000, 0.000, 14:57:33.756
242, -7043.57, -11596.40, 30707.41, 21223.09, -68803.25, -30455.73, -187500.02, -39741.11, 0.000, 0.000, 0.000, 14:57:33.758
243, -7048.26, -11816.72, 30697.93, 21223.52, -68799.13, -30455.95, -187500.02, -39955.15, 0.000, 0.000, 0.000, 14:57:33.758
244, -7057.76, -11482.45, 30679.40, 21242.14, -68771.09, -30462.32, -187500.02, -39790.26, 0.000, 0.000, 0.000, 14:57:33.758
245, -7040.98, -11344.05, 30700.50, 21243.92, -68771.71, -30442.54, -187500.02, -39612.83, 0.004, -0.026, 1.004, 14:57:33.758
246, -7023.07, -11532.70, 30723.16, 21236.62, -68787.24, -30437.76, -187500.02, -39683.98, 0.000, 0.000, 0.000, 14:57:33.758
247, -7025.58, -11822.49, 30722.14, 21225.73, -68799.98, -30451.05, -187500.02, -39938.52, 0.000, 0.000, 0.000, 14:57:33.758
248, -7040.37, -11544.68, 30704.79, 21249.09, -68762.44, -30446.96, -187500.02, -39822.13, 0.000, 0.000, 0.000, 14:57:33.758
249, -7036.08, -11336.00, 30711.21, 21250.52, -68754.79, -30433.51, -187500.02, -39618.62, 0.000, 0.000, 0.000, 14:57:33.758
250, -7021.80, -11446.06, 30726.09, 21248.01, -68763.15, -30432.46, -187500.02, -39623.59, 0.000, 0.000, 0.000, 14:57:33.758
251, -7026.52, -11794.88, 30723.37, 21224.97, -68794.55, -30452.62, -187500.02, -39911.25, 0.000, 0.000, 0.000, 14:57:33.759
252, -7042.72, -11586.85, 30704.23, 21247.08, -68760.38, -30444.39, -187500.02, -39852.24, 0.000, 0.000, 0.000, 14:57:33.759
253, -7048.76, -11333.27, 30703.94, 21241.94, -68759.41, -30443.72, -187500.02, -39646.65, 0.000, 0.000, 0.000, 14:57:33.759
254, -7028.22, -11422.43, 30728.71, 21241.04, -68766.28, -30434.89, -187500.02, -39607.76, 0.004, -0.024, 1.006, 14:57:33.759
255, -7017.37, -11779.21, 30738.16, 21229.15, -68792.19, -30448.37, -187500.02, -39873.52, 0.000, 0.000, 0.000, 14:57:33.759
0, -7032.98, -11682.14, 30714.51, 21249.78, -68766.77, -30456.42, -187500.02, -39889.23, 0.000, 0.000, 0.000, 14:57:33.759
1, -7044.80, -11382.27, 30705.78, 21245.85, -68763.71, -30453.36, -187500.02, -39685.10, 0.000, 0.000, 0.000, 14:57:33.759
2, -7030.94, -11400.35, 30727.41, 21244.88, -68767.73, -30437.15, -187500.02, -39599.51, 0.000, 0.000, 0.000, 14:57:33.759
3, -7022.34, -11737.66, 30729.54, 21225.89, -68798.02, -30449.87, -187500.02, -39838.56, 0.000, 0.000, 0.000, 14:57:33.759
4, -7030.32, -11760.79, 30710.04, 21242.25, -68776.36, -30456.58, -187500.02, -39925.04, 0.000, 0.000, 0.000, 14:57:33.759
5, -7045.34, -11410.83, 30700.41, 21247.88, -68764.60, -30461.67, -187500.02, -39715.32, 0.000, 0.000, 0.000, 14:57:33.759
6, -7030.94, -11370.89, 30718.87, 21246.16, -68768.34, -30448.98, -187500.02, -39595.24, 0.000, 0.000, 0.000, 14:57:33.759
7, -7017.24, -11676.33, 30733.51, 21226.69, -68797.37, -30453.31, -187500.02, -39785.93, 0.000, 0.000, 0.000, 14:57:33.759
8, -7036.55, -11801.63, 30706.60, 21222.96, -68796.81, -30475.57, -187500.02, -39946.61, 0.004, -0.018, 0.992, 14:57:33.760
9, -7050.05, -11449.43, 30692.10, 21231.72, -68778.06, -30471.55, -187500.02, -39760.55, 0.000, 0.000, 0.000, 14:57:33.760
10, -7037.27, -11352.29, 30709.37, 21234.69, -68773.05, -30455.17, -187500.02, -39600.96, 0.000, 0.000, 0.000, 14:57:33.760
11, -7028.93, -11587.52, 30723.88, 21217.24, -68797.62, -30450.36, -187500.02, -39732.17, 0.000, 0.000, 0.000, 14:57:33.760
12, -7037.20, -11817.08, 30712.95, 21215.63, -68798.38, -30464.78, -187500.02, -39953.81, 0.000, 0.000, 0.000, 14:57:33.760
13, -7046.66, -11496.53, 30700.48, 21235.99, -68769.37, -30463.62, -187500.02, -39799.80, 0.000, 0.000, 0.000, 14:57:33.760
14, -7041.85, -11364.68, 30708.57, 21239.92, -68766.88, -30456.44, -187500.02, -39620.12, 0.000, 0.000, 0.000, 14:57:33.760
15, -7039.46, -11526.28, 30710.38, 21223.45, -68795.23, -30469.76, -187500.02, -39680.09, 0.000, 0.000, 0.000, 14:57:33.760
16, -7040.33, -11816.18, 30701.86, 21214.00, -68809.84, -30481.56, -187500.02, -39936.26, 0.000, 0.000, 0.000, 14:57:33.760
17, -7045.85, -11551.22, 30690.80, 21241.26, -68770.98, -30471.33, -187500.02, -39836.39, 0.000, 0.000, 0.000, 14:57:33.760
18, -7040.44, -11355.69, 30701.77, 21245.80, -68763.22, -30464.11, -187500.02, -39639.27, 0.004, -0.018, 0.998, 14:57:33.760
19, -7031.48, -11465.19, 30718.13, 21239.05, -68777.01, -30459.08, -187500.02, -39632.93, 0.000, 0.000, 0.000, 14:57:33.760
20, -7043.17, -11778.68, 30714.74, 21215.02, -68805.62, -30474.75, -187500.02, -39897.89, 0.000, 0.000, 0.000, 14:57:33.760
21, -7051.51, -11587.61, 30702.00, 21242.45, -68771.98, -30469.27, -187500.02, -39862.23, 0.000, 0.000, 0.000, 14:57:33.761
22, -7042.32, -11335.11, 30715.72, 21247.21, -68758.70, -30452.15, -187500.02, -39660.66, 0.000, 0.000, 0.000, 14:57:33.761
23, -7042.74, -11398.34, 30721.22, 21232.93, -68777.61, -30461.94, -187500.02, -39609.70, 0.000, 0.000, 0.000, 14:57:33.761
24, -7031.50, -11754.69, 30732.87, 21216.77, -68805.02, -30467.75, -187500.02, -39879.24, 0.000, 0.000, 0.000, 14:57:33.761
25, -7053.63, -11684.58, 30700.43, 21228.01, -68784.14, -30477.54, -187500.02, -39913.15, 0.000, 0.000, 0.000, 14:57:33.761
26, -7057.81, -11369.24, 30691.58, 21231.83, -68774.82, -30476.69, -187500.02, -39699.91, 0.000, 0.000, 0.000, 14:57:33.762
27, -7049.94, -11350.08, 30705.53, 21229.60, -68779.47, -30474.61, -187500.02, -39593.21, 0.000, 0.000, 0.000, 14:57:33.762
28, -7045.16, -11657.31, 30717.87, 21206.91, -68807.67, -30477.94, -187500.02, -39818.29, 0.002, -0.018, 1.006, 14:57:33.762
29, -7050.88, -11724.00, 30698.00, 21216.61, -68792.34, -30483.78, -187500.02, -39944.40, 0.000, 0.000, 0.000, 14:57:33.762
30, -7054.08, -11381.15, 30693.48, 21236.41, -68764.29, -30473.90, -187500.02, -39734.61, 0.000, 0.000, 0.000, 14:57:33.762
31, -7043.41, -11332.18, 30711.61, 21232.32, -68768.47, -30468.04, -187500.02, -39604.56, 0.000, 0.000, 0.000, 14:57:33.762
32, -7030.41, -11611.10, 30727.59, 21219.63, -68795.36, -30474.17, -187500.02, -39779.64, 0.000, 0.000, 0.000, 14:57:33.763
33, -7037.96, -11773.94, 30715.39, 21221.42, -68790.30, -30479.64, -187500.02, -39963.04, 0.000, 0.000, 0.000, 14:57:33.763
34, -7048.76, -11426.05, 30702.31, 21237.53, -68764.02, -30481.77, -187500.02, -39776.47, 0.000, 0.000, 0.000, 14:57:33.763
35, -7035.99, -11338.17, 30721.69, 21238.72, -68762.19, -30461.16, -187500.02, -39615.98, 0.000, 0.000, 0.000, 14:57:33.763
36, -7023.86, -11553.04, 30738.68, 21228.97, -68781.75, -30451.63, -187500.02, -39727.18, 0.000, 0.000, 0.000, 14:57:33.763
37, -7030.32, -11804.49, 30727.57, 21222.64, -68790.22, -30468.33, -187500.02, -39964.56, 0.000, 0.000, 0.000, 14:57:33.764
38, -7042.63, -11481.33, 30704.59, 21244.95, -68759.30, -30474.79, -187500.02, -39807.50, 0.002, -0.022, 1.010, 14:57:33.764
39, -7035.03, -11329.47, 30714.34, 21244.93, -68758.03, -30471.46, -187500.02, -39616.05, 0.000, 0.000, 0.000, 14:57:33.764
40, -7029.60, -11493.76, 30725.76, 21230.45, -68779.94, -30472.33, -187500.02, -39668.18, 0.000, 0.000, 0.000, 14:57:33.764
41, -7031.81, -11806.66, 30726.92, 21218.64, -68794.64, -30479.02, -187500.02, -39933.98, 0.000, 0.000, 0.000, 14:57:33.764
42, -7047.42, -11544.36, 30703.16, 21239.99, -68762.91, -30480.60, -187500.02, -39836.62, 0.000, 0.000, 0.000, 14:57:33.765
43, -7056.45, -11312.26, 30700.19, 21232.08, -68768.31, -30483.11, -187500.02, -39638.11, 0.000, 0.000, 0.000, 14:57:33.765
44, -7035.08, -11419.89, 30725.62, 21231.54, -68776.70, -30471.95, -187500.02, -39629.46, 0.000, 0.000, 0.000, 14:57:33.765
45, -7038.77, -11763.30, 30719.66, 21213.41, -68802.84, -30481.36, -187500.02, -39901.17, 0.000, 0.000, 0.000, 14:57:33.765
46, -7054.23, -11601.20, 30700.21, 21232.35, -68773.27, -30475.60, -187500.02, -39875.60, 0.000, 0.000, 0.000, 14:57:33.765
47, -7060.07, -11310.23, 30699.88, 21234.34, -68765.72, -30472.96, -187500.02, -39658.68, 0.000, 0.000, 0.000, 14:57:33.766
48, -7049.25, -11347.53, 30714.60, 21229.48, -68774.86, -30467.93, -187500.02, -39597.93, 0.004, -0.018, 1.014, 14:57:33.766
49, -7046.39, -11682.63, 30717.76, 21209.59, -68807.66, -30485.25, -187500.02, -39857.68, 0.000, 0.000, 0.000, 14:57:33.766
50, -7051.48, -11655.58, 30707.47, 21228.41, -68782.69, -30489.23, -187500.02, -39918.40, 0.000, 0.000, 0.000, 14:57:33.766
51, -7056.69, -11362.31, 30703.70, 21235.30, -68768.47, -30479.11, -187500.02, -39713.08, 0.000, 0.000, 0.000, 14:57:33.766
52, -7051.46, -11360.36, 30711.83, 21227.90, -68777.66, -30478.95, -187500.02, -39604.59, 0.000, 0.000, 0.000, 14:57:33.767
53, -7048.53, -11679.17, 30720.30, 21201.99, -68809.48, -30484.92, -187500.02, -39820.41, 0.000, 0.000, 0.000, 14:57:33.767
54, -7058.61, -11725.43, 30707.76, 21218.33, -68789.48, -30481.03, -187500.02, -39935.46, 0.000, 0.000, 0.000, 14:57:33.767
55, -7059.28, -11383.43, 30705.39, 21233.24, -68766.81, -30473.61, -187500.02, -39740.44, 0.000, 0.000, 0.000, 14:57:33.767
56, -7051.55, -11318.65, 30718.16, 21230.98, -68770.13, -30466.16, -187500.02, -39596.49, 0.000, 0.000, 0.000, 14:57:33.767
57, -7045.07, -11601.05, 30730.45, 21209.35, -68798.38, -30473.00, -187500.02, -39767.35, 0.000, 0.000, 0.000, 14:57:33.767
58, -7058.05, -11774.43, 30712.37, 21210.31, -68797.46, -30493.93, -187500.02, -39952.54, 0.006, -0.018, 1.014, 14:57:33.768
59, -7069.95, -11428.83, 30692.32, 21230.89, -68769.23, -30492.45, -187500.02, -39772.16, 0.000, 0.000, 0.000, 14:57:33.768
60, -7057.50, -11305.94, 30707.67, 21234.85, -68766.05, -30477.47, -187500.02, -39603.54, 0.000, 0.000, 0.000, 14:57:33.768
61, -7052.18, -11526.33, 30716.01, 21214.82, -68796.56, -30495.80, -187500.02, -39714.76, 0.000, 0.000, 0.000, 14:57:33.768
62, -7073.95, -11780.91, 30693.77, 21194.88, -68816.41, -30514.78, -187500.02, -39956.34, 0.000, 0.000, 0.000, 14:57:33.768
63, -7081.57, -11461.77, 30678.21, 21220.86, -68779.27, -30500.90, -187500.02, -39811.70, 0.000, 0.000, 0.000, 14:57:33.769
64, -7073.75, -11292.01, 30701.82, 21223.38, -68774.55, -30485.68, -187500.02, -39625.37, 0.000, 0.000, 0.000, 14:57:33.769
65, -7058.66, -11460.12, 30724.19, 21217.19, -68786.53, -30479.40, -187500.02, -39671.98, 0.000, 0.000, 0.000, 14:57:33.769
66, -7061.90, -11772.48, 30713.04, 21205.35, -68804.86, -30495.24, -187500.02, -39933.34, 0.000, 0.000, 0.000, 14:57:33.769
67, -7075.47, -11523.98, 30691.04, 21226.00, -68773.07, -30496.18, -187500.02, -39846.32, 0.000, 0.000, 0.000, 14:57:33.769
68, -7074.68, -11295.19, 30696.16, 21223.21, -68767.76, -30486.79, -187500.02, -39645.45, 0.008, -0.022, 1.012, 14:57:33.770
69, -7055.24, -11379.59, 30714.27, 21226.58, -68776.41, -30482.77, -187500.02, -39622.85, 0.000, 0.000, 0.000, 14:57:33.770
70, -7060.00, -11736.54, 30710.96, 21199.02, -68813.30, -30507.69, -187500.02, -39908.75, 0.000, 0.000, 0.000, 14:57:33.770
71, -7070.57, -11598.77, 30696.16, 21223.52, -68778.35, -30494.01, -187500.02, -39893.35, 0.000, 0.000, 0.000, 14:57:33.770
72, -7071.44, -11299.16, 30697.64, 21229.71, -68765.16, -30485.34, -187500.02, -39678.05, 0.000, 0.000, 0.000, 14:57:33.771
73, -7057.74, -11335.08, 30715.45, 21227.14, -68770.28, -30475.06, -187500.02, -39612.90, 0.000, 0.000, 0.000, 14:57:33.771
74, -7052.00, -11674.36, 30720.26, 21209.44, -68799.36, -30490.48, -187500.02, -39863.33, 0.000, 0.000, 0.000, 14:57:33.771
75, -7061.30, -11632.67, 30707.74, 21226.91, -68773.84, -30493.70, -187500.02, -39919.59, 0.000, 0.000, 0.000, 14:57:33.771
76, -7063.87, -11296.55, 30709.04, 21238.76, -68756.22, -30482.26, -187500.02, -39706.11, 0.000, 0.000, 0.000, 14:57:33.771
77, -7057.74, -11272.19, 30717.46, 21232.32, -68762.68, -30478.05, -187500.02, -39590.62, 0.000, 0.000, 0.000, 14:57:33.772
78, -7060.38, -11566.27, 30724.21, 21202.04, -68799.20, -30492.81, -187500.02, -39800.23, 0.012, -0.020, 1.006, 14:57:33.772
79, -7061.74, -11648.43, 30718.63, 21219.14, -68781.27, -30492.58, -187500.02, -39935.68, 0.000, 0.000, 0.000, 14:57:33.772
80, -7059.02, -11312.40, 30719.21, 21237.46, -68754.88, -30488.78, -187500.02, -39740.93, 0.000, 0.000, 0.000, 14:57:33.772
81, -7053.29, -11245.88, 30727.32, 21232.66, -68759.46, -30487.42, -187500.02, -39592.63, 0.000, 0.000, 0.000, 14:57:33.773
82, -7051.68, -11486.70, 30725.27, 21209.48, -68793.66, -30493.88, -187500.02, -39747.08, 0.000, 0.000, 0.000, 14:57:33.773
83, -7059.19, -11679.28, 30709.75, 21209.93, -68794.94, -30505.30, -187500.02, -39958.14, 0.000, 0.000, 0.000, 14:57:33.773
84, -7078.19, -11344.49, 30685.21, 21220.61, -68771.87, -30512.05, -187500.02, -39788.59, 0.000, 0.000, 0.000, 14:57:33.773
85, -7067.31, -11215.26, 30697.68, 21222.56, -68767.40, -30490.88, -187500.02, -39610.73, 0.000, 0.000, 0.000, 14:57:33.774
86, -7066.17, -11404.04, 30711.27, 21203.18, -68793.21, -30494.84, -187500.02, -39700.36, 0.000, 0.000, 0.000, 14:57:33.774
87, -7067.20, -11678.99, 30711.03, 21197.97, -68804.81, -30513.48, -187500.02, -39954.23, 0.000, 0.000, 0.000, 14:57:33.774
88, -7076.76, -11387.14, 30691.94, 21226.74, -68769.03, -30516.86, -187500.02, -39824.46, 0.008, -0.016, 1.008, 14:57:33.774
89, -7074.22, -11202.49, 30701.82, 21225.30, -68768.09, -30502.15, -187500.02, -39629.33, 0.000, 0.000, 0.000, 14:57:33.775
90, -7070.06, -11339.42, 30715.10, 21214.08, -68787.20, -30501.53, -187500.02, -39660.75, 0.000, 0.000, 0.000, 14:57:33.775
91, -7069.10, -11645.57, 30713.75, 21199.85, -68808.01, -30510.02, -187500.02, -39934.63, 0.000, 0.000, 0.000, 14:57:33.775
92, -7073.50, -11428.07, 30698.96, 21223.07, -68771.33, -30504.95, -187500.02, -39873.63, 0.000, 0.000, 0.000, 14:57:33.775
93, -7072.96, -11201.55, 30702.67, 21223.92, -68767.55, -30497.72, -187500.02, -39671.08, 0.000, 0.000, 0.000, 14:57:33.775
94, -7057.18, -11311.59, 30719.79, 21220.95, -68777.66, -30491.58, -187500.02, -39648.35, 0.000, 0.000, 0.000, 14:57:33.776
95, -7067.00, -11664.88, 30713.06, 21192.69, -68808.62, -30509.10, -187500.02, -39922.85, 0.000, 0.000, 0.000, 14:57:33.776
96, -7079.18, -11532.14, 30691.80, 21214.73, -68778.48, -30512.97, -187500.02, -39920.48, 0.000, 0.000, 0.000, 14:57:33.776
97, -7076.47, -11230.95, 30697.15, 21225.21, -68765.88, -30507.02, -187500.02, -39707.34, 0.000, 0.000, 0.000, 14:57:33.776
98, -7061.12, -11253.79, 30720.30, 21225.06, -68770.84, -30501.21, -187500.02, -39621.46, 0.008, -0.012, 1.008, 14:57:33.776
99, -7064.18, -11582.92, 30722.34, 21199.24, -68807.16, -30518.54, -187500.02, -39869.88, 0.000, 0.000, 0.000, 14:57:33.776
100, -7080.45, -11577.24, 30699.07, 21211.58, -68788.79, -30524.32, -187500.02, -39956.51, 0.000, 0.000, 0.000, 14:57:33.777
101, -7083.63, -11236.00, 30692.32, 21220.92, -68768.45, -30510.67, -187500.02, -39741.67, 0.000, 0.000, 0.000, 14:57:33.777
102, -7075.31, -11230.57, 30700.86, 21210.91, -68777.14, -30508.54, -187500.02, -39629.44, 0.000, 0.000, 0.000, 14:57:33.777
103, -7059.95, -11526.73, 30720.50, 21201.59, -68799.90, -30511.74, -187500.02, -39819.88, 0.000, 0.000, 0.000, 14:57:33.777
104, -7057.18, -11642.46, 30717.62, 21217.97, -68783.52, -30515.85, -187500.02, -39975.51, 0.000, 0.000, 0.000, 14:57:34.234
105, -7077.95, -11300.37, 30692.39, 21223.90, -68766.19, -30528.26, -187500.02, -39783.49, 0.000, 0.000, 0.000, 14:57:34.234
106, -7067.13, -11217.16, 30708.12, 21221.04, -68768.58, -30511.49, -187500.02, -39629.44, 0.000, 0.000, 0.000, 14:57:34.234
107, -7051.53, -11484.04, 30730.21, 21208.70, -68790.55, -30502.11, -187500.02, -39784.14, 0.008, -0.016, 1.012, 14:57:34.234
108, -7065.94, -11686.94, 30714.74, 21206.06, -68792.01, -30512.57, -187500.02, -39998.87, 0.000, 0.000, 0.000, 14:57:34.234
109, -7081.19, -11339.69, 30699.79, 21221.39, -68764.47, -30512.41, -187500.02, -39828.13, 0.000, 0.000, 0.000, 14:57:34.234
110, -7077.37, -11195.43, 30707.70, 21218.06, -68765.90, -30505.93, -187500.02, -39643.63, 0.000, 0.000, 0.000, 14:57:34.234
111, -7066.15, -11387.99, 30721.53, 21203.00, -68789.99, -30510.53, -187500.02, -39731.61, 0.000, 0.000, 0.000, 14:57:34.234
112, -7056.38, -11701.07, 30730.38, 21204.47, -68793.28, -30516.14, -187500.02, -39999.70, 0.000, 0.000, 0.000, 14:57:34.234
113, -7074.01, -11417.09, 30706.96, 21223.23, -68762.16, -30524.81, -187500.02, -39875.78, 0.000, 0.000, 0.000, 14:57:34.234
114, -7072.14, -11223.75, 30708.37, 21219.83, -68764.96, -30519.07, -187500.02, -39675.95, 0.000, 0.000, 0.000, 14:57:34.235
115, -7062.06, -11355.63, 30725.51, 21213.26, -68780.05, -30515.47, -187500.02, -39685.61, 0.000, 0.000, 0.000, 14:57:34.235
116, -7063.96, -11679.81, 30722.83, 21197.05, -68800.84, -30526.29, -187500.02, -39958.79, 0.000, 0.000, 0.000, 14:57:34.235
117, -7078.80, -11474.31, 30699.40, 21216.65, -68771.22, -30524.01, -187500.02, -39908.68, 0.004, -0.020, 1.010, 14:57:34.235
118, -7072.11, -11233.20, 30706.51, 21223.92, -68760.67, -30509.04, -187500.02, -39699.87, 0.000, 0.000, 0.000, 14:57:34.235
119, -7065.65, -11307.10, 30713.17, 21218.00, -68770.77, -30512.90, -187500.02, -39647.34, 0.000, 0.000, 0.000, 14:57:34.235
120, -7071.20, -11638.15, 30711.88, 21190.59, -68807.36, -30533.31, -187500.02, -39915.50, 0.000, 0.000, 0.000, 14:57:34.235
121, -7078.57, -11557.51, 30704.05, 21212.47, -68777.55, -30524.41, -187500.02, -39949.61, 0.000, 0.000, 0.000, 14:57:34.236
122, -7086.06, -11257.75, 30700.21, 21216.23, -68765.32, -30518.00, -187500.02, -39732.01, 0.000, 0.000, 0.000, 14:57:34.236
123, -7076.18, -11284.64, 30712.99, 21211.16, -68774.91, -30515.85, -187500.02, -39644.64, 0.000, 0.000, 0.000, 14:57:34.236
124, -7070.24, -11622.50, 30723.10, 21190.55, -68807.14, -30527.59, -187500.02, -39887.47, 0.000, 0.000, 0.000, 14:57:34.236
125, -7083.25, -11645.97, 30706.11, 21204.16, -68790.60, -30538.79, -187500.02, -39989.95, 0.000, 0.000, 0.000, 14:57:34.236
126, -7084.97, -11310.23, 30700.21, 21216.52, -68765.72, -30522.78, -187500.02, -39779.80, 0.000, 0.000, 0.000, 14:57:34.236
127, -7067.98, -11285.06, 30719.86, 21217.48, -68765.74, -30514.09, -187500.02, -39647.01, 0.006, -0.016, 1.014, 14:57:34.236
128, -7060.78, -11575.05, 30729.67, 21199.31, -68795.34, -30520.72, -187500.02, -39829.71, 0.000, 0.000, 0.000, 14:57:34.236
129, -7072.90, -11692.89, 30709.91, 21204.00, -68787.24, -30530.45, -187500.02, -39997.30, 0.000, 0.000, 0.000, 14:57:34.236
130, -7084.27, -11352.70, 30693.06, 21216.83, -68766.05, -30535.88, -187500.02, -39813.24, 0.000, 0.000, 0.000, 14:57:34.237
131, -7077.72, -11271.20, 30705.06, 21214.73, -68768.42, -30530.09, -187500.02, -39650.47, 0.000, 0.000, 0.000, 14:57:34.237
132, -7060.36, -11507.39, 30726.52, 21205.48, -68786.66, -30526.69, -187500.02, -39774.05, 0.000, 0.000, 0.000, 14:57:34.237
133, -7074.66, -11728.88, 30712.82, 21195.89, -68794.24, -30537.29, -187500.02, -40002.83, 0.000, 0.000, 0.000, 14:57:34.237
134, -7086.35, -11394.72, 30695.52, 21214.84, -68766.95, -30536.71, -187500.02, -39848.24, 0.000, 0.000, 0.000, 14:57:34.237
135, -7073.19, -11256.85, 30716.86, 21219.36, -68761.05, -30519.38, -187500.02, -39664.55, 0.000, 0.000, 0.000, 14:57:34.237
136, -7069.95, -11431.22, 30724.35, 21204.41, -68784.41, -30528.08, -187500.02, -39724.99, 0.000, 0.000, 0.000, 14:57:34.237
137, -7076.67, -11716.85, 30714.18, 21191.82, -68801.30, -30538.09, -187500.02, -39993.57, 0.008, -0.014, 1.012, 14:57:34.237
138, -7083.63, -11445.81, 30702.76, 21217.84, -68763.84, -30533.58, -187500.02, -39892.92, 0.000, 0.000, 0.000, 14:57:34.237
139, -7078.35, -11247.93, 30712.06, 21220.34, -68757.59, -30527.92, -187500.02, -39687.02, 0.000, 0.000, 0.000, 14:57:34.237
140, -7060.56, -11371.92, 30729.47, 21216.68, -68770.73, -30523.05, -187500.02, -39687.06, 0.000, 0.000, 0.000, 14:57:34.237
141, -7065.10, -11721.46, 30724.24, 21196.05, -68797.15, -30537.11, -187500.02, -39971.46, 0.000, 0.000, 0.000, 14:57:34.238
142, -7076.83, -11514.95, 30704.12, 21223.29, -68760.13, -30535.75, -187500.02, -39920.13, 0.000, 0.000, 0.000, 14:57:34.238
143, -7073.70, -11270.58, 30709.26, 21225.73, -68754.16, -30534.34, -187500.02, -39712.50, 0.000, 0.000, 0.000, 14:57:34.238
144, -7062.46, -11344.45, 30724.57, 21218.33, -68763.33, -30523.52, -187500.02, -39655.82, 0.000, 0.000, 0.000, 14:57:34.238
145, -7068.31, -11676.19, 30721.04, 21193.90, -68796.48, -30535.54, -187500.02, -39921.69, 0.000, 0.000, 0.000, 14:57:34.238
146, -7077.52, -11586.99, 30709.80, 21214.11, -68768.54, -30531.86, -187500.02, -39961.99, 0.000, 0.000, 0.000, 14:57:34.238
147, -7082.13, -11274.76, 30709.46, 21219.43, -68757.56, -30527.65, -187500.02, -39747.82, 0.004, -0.014, 1.000, 14:57:34.238
148, -7069.86, -11284.84, 30725.36, 21217.26, -68765.05, -30522.47, -187500.02, -39640.95, 0.000, 0.000, 0.000, 14:57:34.238
149, -7062.39, -11607.69, 30734.88, 21198.08, -68794.42, -30528.59, -187500.02, -39873.45, 0.000, 0.000, 0.000, 14:57:34.238
150, -7079.18, -11651.23, 30710.31, 21204.67, -68782.44, -30540.44, -187500.02, -39996.86, 0.000, 0.000, 0.000, 14:57:34.238
151, -7081.66, -11300.80, 30706.78, 21222.76, -68760.27, -30540.84, -187500.02, -39785.68, 0.000, 0.000, 0.000, 14:57:34.238
152, -7070.15, -11264.70, 30716.62, 21220.23, -68762.32, -30534.85, -187500.02, -39644.13, 0.000, 0.000, 0.000, 14:57:34.238
153, -7066.41, -11537.86, 30723.77, 21200.25, -68791.20, -30541.80, -187500.02, -39819.52, 0.000, 0.000, 0.000, 14:57:34.239
154, -7078.73, -11681.71, 30707.18, 21198.88, -68789.44, -30558.34, -187500.02, -40011.48, 0.000, 0.000, 0.000, 14:57:34.239
155, -7098.40, -11329.27, 30689.88, 21204.61, -68770.13, -30563.82, -187500.02, -39830.50, 0.000, 0.000, 0.000, 14:57:34.239
156, -7083.63, -11223.73, 30712.06, 21210.11, -68765.54, -30540.28, -187500.02, -39662.63, 0.000, 0.000, 0.000, 14:57:34.239
157, -7069.83, -11442.17, 30729.22, 21199.29, -68786.06, -30535.21, -187500.02, -39774.68, 0.004, -0.016, 1.008, 14:57:34.239
158, -7078.84, -11688.08, 30716.88, 21197.03, -68791.67, -30552.46, -187500.02, -40014.74, 0.000, 0.000, 0.000, 14:57:34.239
159, -7090.29, -11387.36, 30701.51, 21215.54, -68762.91, -30552.84, -187500.02, -39875.33, 0.000, 0.000, 0.000, 14:57:34.239
160, -7087.25, -11231.37, 30703.05, 21213.53, -68761.88, -30547.93, -187500.02, -39678.86, 0.000, 0.000, 0.000, 14:57:34.239
161, -7081.79, -11388.19, 30709.33, 21198.88, -68787.11, -30550.05, -187500.02, -39731.07, 0.000, 0.000, 0.000, 14:57:34.239
162, -7083.40, -11709.21, 30705.53, 21182.79, -68807.56, -30563.01, -187500.02, -40012.01, 0.000, 0.000, 0.000, 14:57:34.239
163, -7089.77, -11482.43, 30694.02, 21210.04, -68771.42, -30565.72, -187500.02, -39923.70, 0.000, 0.000, 0.000, 14:57:34.239
164, -7108.01, -11246.44, 30680.70, 21198.26, -68779.16, -30576.38, -187500.02, -39700.92, 0.000, 0.000, 0.000, 14:57:34.239
165, -7091.49, -11347.24, 30703.43, 21190.93, -68791.76, -30562.57, -187500.02, -39698.38, 0.000, 0.000, 0.000, 14:57:34.240
166, -7085.35, -11706.55, 30713.33, 21175.82, -68815.50, -30568.71, -187500.02, -39988.95, 0.000, 0.000, 0.000, 14:57:34.240
167, -7100.68, -11546.24, 30692.90, 21198.30, -68781.68, -30567.69, -187500.02, -39957.39, 0.004, -0.022, 1.004, 14:57:34.240
168, -7100.30, -11258.46, 30693.59, 21200.74, -68773.70, -30555.04, -187500.02, -39733.71, 0.000, 0.000, 0.000, 14:57:34.240
169, -7087.40, -11318.72, 30707.25, 21197.19, -68779.84, -30546.59, -187500.02, -39676.18, 0.000, 0.000, 0.000, 14:57:34.240
170, -7076.58, -11664.12, 30719.48, 21182.81, -68802.04, -30552.17, -187500.02, -39937.92, 0.000, 0.000, 0.000, 14:57:34.240
171, -7090.06, -11622.55, 30704.32, 21201.43, -68776.29, -30558.54, -187500.02, -39989.88, 0.000, 0.000, 0.000, 14:57:34.240
172, -7106.22, -11300.04, 30692.39, 21195.46, -68772.09, -30563.30, -187500.02, -39774.86, 0.000, 0.000, 0.000, 14:57:34.240
173, -7082.75, -11290.80, 30719.99, 21202.98, -68769.37, -30541.38, -187500.02, -39664.42, 0.000, 0.000, 0.000, 14:57:34.241
174, -7076.12, -11599.93, 30734.45, 21185.90, -68796.34, -30547.26, -187500.02, -39884.77, 0.000, 0.000, 0.000, 14:57:34.241
175, -7084.12, -11674.61, 30718.92, 21196.43, -68781.81, -30549.54, -187500.02, -40019.16, 0.000, 0.000, 0.000, 14:57:34.241
176, -7096.41, -11328.38, 30701.88, 21207.56, -68760.49, -30549.71, -187500.02, -39811.05, 0.000, 0.000, 0.000, 14:57:34.241
177, -7077.99, -11281.24, 30723.43, 21208.54, -68761.05, -30538.81, -187500.02, -39670.05, 0.006, -0.024, 1.004, 14:57:34.241
178, -7068.52, -11558.76, 30738.14, 21194.39, -68783.05, -30543.05, -187500.02, -39840.64, 0.000, 0.000, 0.000, 14:57:34.241
179, -7082.13, -11718.15, 30726.49, 21192.78, -68780.95, -30558.21, -187500.02, -40030.61, 0.000, 0.000, 0.000, 14:57:34.241
180, -7089.01, -11380.39, 30715.59, 21209.55, -68754.90, -30559.35, -187500.02, -39854.48, 0.000, 0.000, 0.000, 14:57:34.241
181, -7083.33, -11280.84, 30726.16, 21207.16, -68756.13, -30549.38, -187500.02, -39683.87, 0.000, 0.000, 0.000, 14:57:34.241
182, -7076.20, -11499.50, 30733.33, 21188.98, -68784.32, -30560.78, -187500.02, -39795.00, 0.000, 0.000, 0.000, 14:57:34.242
183, -7079.65, -11757.84, 30721.18, 21187.96, -68791.41, -30578.84, -187500.02, -40036.64, 0.000, 0.000, 0.000, 14:57:34.242
184, -7101.15, -11427.24, 30698.69, 21201.14, -68764.29, -30572.65, -187500.02, -39887.09, 0.000, 0.000, 0.000, 14:57:34.242
185, -7090.24, -11260.83, 30718.76, 21200.83, -68761.49, -30554.45, -187500.02, -39699.67, 0.000, 0.000, 0.000, 14:57:34.242
186, -7075.47, -11435.62, 30739.41, 21193.01, -68777.90, -30542.52, -187500.02, -39748.38, 0.000, 0.000, 0.000, 14:57:34.242
187, -7077.03, -11747.09, 30734.88, 21183.13, -68793.44, -30554.77, -187500.02, -40012.80, 0.010, -0.018, 1.002, 14:57:34.242
188, -7098.35, -11502.05, 30709.69, 21200.72, -68766.19, -30560.71, -187500.02, -39930.12, 0.000, 0.000, 0.000, 14:57:34.242
189, -7099.23, -11276.72, 30708.44, 21202.66, -68762.81, -30563.21, -187500.02, -39720.99, 0.000, 0.000, 0.000, 14:57:34.242
190, -7087.31, -11391.88, 30727.46, 21194.95, -68773.50, -30552.91, -187500.02, -39709.57, 0.000, 0.000, 0.000, 14:57:34.242
191, -7099.92, -11743.70, 30718.76, 21166.19, -68808.19, -30579.00, -187500.02, -39991.85, 0.000, 0.000, 0.000, 14:57:34.242
192, -7116.93, -11594.39, 30693.32, 21184.33, -68780.88, -30581.28, -187500.02, -39981.95, 0.000, 0.000, 0.000, 14:57:34.242
193, -7120.91, -11298.96, 30689.35, 21183.55, -68774.15, -30577.83, -187500.02, -39761.96, 0.000, 0.000, 0.000, 14:57:34.242
194, -7098.15, -11353.70, 30714.49, 21181.85, -68782.04, -30559.33, -187500.02, -39699.34, 0.000, 0.000, 0.000, 14:57:34.243
195, -7089.88, -11698.12, 30724.55, 21171.01, -68805.80, -30566.50, -187500.02, -39953.61, 0.000, 0.000, 0.000, 14:57:34.243
196, -7102.91, -11666.81, 30703.83, 21188.09, -68782.40, -30577.03, -187500.02, -40014.74, 0.000, 0.000, 0.000, 14:57:34.243
197, -7105.66, -11347.80, 30699.76, 21202.10, -68762.57, -30568.42, -187500.02, -39797.66, 0.006, -0.014, 1.012, 14:57:34.243
198, -7100.19, -11324.53, 30710.47, 21200.18, -68767.93, -30561.16, -187500.02, -39678.17, 0.000, 0.000, 0.000, 14:57:34.243
199, -7097.98, -11625.70, 30717.42, 21173.56, -68805.80, -30577.97, -187500.02, -39894.60, 0.000, 0.000, 0.000, 14:57:34.243
200, -7098.40, -11725.01, 30714.65, 21187.91, -68787.96, -30576.98, -187500.02, -40033.89, 0.000, 0.000, 0.000, 14:57:34.243
201, -7114.72, -11368.61, 30692.88, 21197.37, -68767.48, -30581.90, -187500.02, -39822.70, 0.000, 0.000, 0.000, 14:57:34.243
202, -7099.32, -11315.62, 30715.07, 21195.44, -68769.37, -30561.74, -187500.02, -39681.83, 0.000, 0.000, 0.000, 14:57:34.243
203, -7098.82, -11573.31, 30722.54, 21172.87, -68798.69, -30566.54, -187500.02, -39839.68, 0.000, 0.000, 0.000, 14:57:34.243
204, -7107.43, -11748.61, 30708.72, 21170.63, -68800.73, -30583.00, -187500.02, -40040.36, 0.000, 0.000, 0.000, 14:57:34.243
205, -7110.74, -11431.73, 30704.48, 21192.27, -68769.48, -30575.42, -187500.02, -39877.23, 0.000, 0.000, 0.000, 14:57:34.243
206, -7098.60, -11326.48, 30719.25, 21194.59, -68768.02, -30568.71, -187500.02, -39707.56, 0.000, 0.000, 0.000, 14:57:34.244
207, -7088.48, -11536.85, 30736.64, 21182.48, -68788.09, -30561.99, -187500.02, -39802.96, 0.002, -0.016, 1.016, 14:57:34.244
208, -7086.96, -11806.26, 30732.84, 21180.94, -68792.52, -30565.16, -187500.02, -40055.82, 0.000, 0.000, 0.000, 14:57:34.244
209, -7099.27, -11500.89, 30710.60, 21198.37, -68763.17, -30580.70, -187500.02, -39923.39, 0.000, 0.000, 0.000, 14:57:34.244
210, -7101.53, -11327.42, 30711.94, 21192.09, -68767.35, -30581.63, -187500.02, -39731.79, 0.000, 0.000, 0.000, 14:57:34.244
211, -7083.63, -11450.73, 30731.75, 21193.74, -68776.45, -30569.70, -187500.02, -39750.61, 0.000, 0.000, 0.000, 14:57:34.244
212, -7084.43, -11763.75, 30730.88, 21179.33, -68795.74, -30575.93, -187500.02, -40026.96, 0.000, 0.000, 0.000, 14:57:34.244
213, -7101.86, -11567.12, 30708.48, 21194.39, -68770.59, -30584.20, -187500.02, -39974.26, 0.000, 0.000, 0.000, 14:57:34.244
214, -7098.44, -11351.60, 30717.85, 21197.37, -68762.44, -30567.46, -187500.02, -39771.35, 0.000, 0.000, 0.000, 14:57:34.244
215, -7085.73, -11430.48, 30732.84, 21195.76, -68767.62, -30557.11, -187500.02, -39734.89, 0.000, 0.000, 0.000, 14:57:34.244
216, -7089.17, -11769.11, 30731.39, 21174.23, -68798.38, -30574.93, -187500.02, -40008.59, 0.006, -0.020, 1.014, 14:57:34.244
217, -7100.86, -11649.50, 30715.68, 21195.46, -68767.62, -30573.77, -187500.02, -40009.82, 0.000, 0.000, 0.000, 14:57:34.244
218, -7107.21, -11366.51, 30709.46, 21197.39, -68760.98, -30575.20, -187500.02, -39796.21, 0.000, 0.000, 0.000, 14:57:34.245
219, -7103.03, -11394.90, 30720.42, 21187.98, -68772.38, -30567.55, -187500.02, -39718.07, 0.000, 0.000, 0.000, 14:57:34.245
220, -7092.83, -11719.94, 30732.02, 21171.30, -68799.38, -30569.65, -187500.02, -39969.75, 0.000, 0.000, 0.000, 14:57:34.245
221, -7108.70, -11705.07, 30706.38, 21182.43, -68782.02, -30586.28, -187500.02, -40052.92, 0.000, 0.000, 0.000, 14:57:34.245
222, -7118.87, -11348.14, 30697.35, 21189.83, -68765.63, -30585.03, -187500.02, -39830.90, 0.000, 0.000, 0.000, 14:57:34.245
223, -7101.04, -11315.21, 30720.64, 21187.55, -68771.13, -30575.11, -187500.02, -39713.44, 0.000, 0.000, 0.000, 14:57:34.245
224, -7095.18, -11637.23, 30735.48, 21167.64, -68799.05, -30579.11, -187500.02, -39929.11, 0.000, 0.000, 0.000, 14:57:34.714
225, -7118.23, -11736.86, 30708.64, 21167.35, -68797.28, -30595.16, -187500.02, -40080.59, 0.000, 0.000, 0.000, 14:57:34.714
226, -7118.52, -11387.45, 30707.12, 21186.10, -68770.75, -30586.62, -187500.02, -39881.30, 0.006, -0.022, 1.008, 14:57:34.714
227, -7108.46, -11321.36, 30724.60, 21186.66, -68769.63, -30579.42, -187500.02, -39726.58, 0.000, 0.000, 0.000, 14:57:34.714
228, -7103.99, -11547.56, 30726.23, 21170.68, -68797.77, -30583.47, -187500.02, -39860.20, 0.000, 0.000, 0.000, 14:57:34.714
229, -7111.48, -11754.42, 30706.76, 21168.71, -68801.15, -30597.30, -187500.02, -40076.88, 0.000, 0.000, 0.000, 14:57:34.714
230, -7123.81, -11435.82, 30690.15, 21183.87, -68773.90, -30591.67, -187500.02, -39917.40, 0.000, 0.000, 0.000, 14:57:34.715
231, -7115.63, -11309.92, 30702.94, 21183.31, -68771.60, -30577.21, -187500.02, -39738.72, 0.000, 0.000, 0.000, 14:57:34.715
232, -7099.56, -11519.69, 30722.49, 21171.62, -68792.38, -30577.05, -187500.02, -39830.41, 0.000, 0.000, 0.000, 14:57:34.715
233, -7103.70, -11803.15, 30713.11, 21164.53, -68803.63, -30595.16, -187500.02, -40082.15, 0.000, 0.000, 0.000, 14:57:34.715
234, -7114.31, -11510.57, 30695.05, 21187.84, -68770.26, -30596.59, -187500.02, -39954.10, 0.000, 0.000, 0.000, 14:57:34.715
235, -7108.10, -11319.86, 30708.72, 21187.75, -68769.30, -30586.46, -187500.02, -39761.09, 0.000, 0.000, 0.000, 14:57:34.715
236, -7098.38, -11445.17, 30725.67, 21178.14, -68783.94, -30586.42, -187500.02, -39776.83, 0.006, -0.018, 1.004, 14:57:34.715
237, -7093.82, -11780.38, 30730.59, 21162.03, -68807.05, -30591.58, -187500.02, -40061.52, 0.000, 0.000, 0.000, 14:57:34.715
238, -7108.44, -11569.13, 30709.35, 21185.12, -68773.86, -30596.94, -187500.02, -39996.50, 0.000, 0.000, 0.000, 14:57:34.716
239, -7115.68, -11318.65, 30707.16, 21180.29, -68772.78, -30598.91, -187500.02, -39791.56, 0.000, 0.000, 0.000, 14:57:34.716
240, -7106.60, -11377.91, 30719.03, 21176.11, -68781.05, -30591.85, -187500.02, -39747.55, 0.000, 0.000, 0.000, 14:57:34.716
241, -7099.92, -11706.08, 30724.48, 21162.27, -68804.52, -30598.75, -187500.02, -40012.66, 0.000, 0.000, 0.000, 14:57:34.716
242, -7111.30, -11609.81, 30708.32, 21177.81, -68777.70, -30596.21, -187500.02, -40033.71, 0.000, 0.000, 0.000, 14:57:34.716
243, -7107.32, -11325.41, 30712.79, 21188.96, -68759.48, -30586.17, -187500.02, -39817.38, 0.000, 0.000, 0.000, 14:57:34.716
244, -7101.37, -11344.87, 30725.60, 21181.54, -68769.70, -30579.60, -187500.02, -39730.29, 0.000, 0.000, 0.000, 14:57:34.716
245, -7090.17, -11680.26, 30742.68, 21166.05, -68794.40, -30579.06, -187500.02, -39978.35, 0.000, 0.000, 0.000, 14:57:34.717
246, -7102.31, -11688.11, 30723.01, 21182.32, -68770.98, -30586.15, -187500.02, -40066.04, 0.008, -0.020, 1.008, 14:57:34.717
247, -7113.08, -11320.89, 30710.20, 21186.23, -68757.36, -30591.40, -187500.02, -39845.47, 0.000, 0.000, 0.000, 14:57:34.717
248, -7096.05, -11293.49, 30732.08, 21183.91, -68760.76, -30579.13, -187500.02, -39725.80, 0.000, 0.000, 0.000, 14:57:34.717
249, -7085.21, -11607.75, 30746.90, 21164.98, -68793.21, -30584.88, -187500.02, -39931.59, 0.000, 0.000, 0.000, 14:57:34.717
250, -7101.53, -11739.00, 30725.51, 21167.64, -68786.13, -30598.15, -187500.02, -40097.02, 0.000, 0.000, 0.000, 14:57:34.717
251, -7115.21, -11396.19, 30706.58, 21177.23, -68766.13, -30597.64, -187500.02, -39907.77, 0.000, 0.000, 0.000, 14:57:34.717
252, -7102.29, -11309.58, 30722.54, 21181.88, -68763.75, -30583.51, -187500.02, -39746.45, 0.000, 0.000, 0.000, 14:57:34.718
253, -7088.72, -11560.01, 30749.07, 21168.02, -68786.59, -30579.00, -187500.02, -39883.25, 0.000, 0.000, 0.000, 14:57:34.718
254, -7091.74, -11781.38, 30738.14, 21172.26, -68784.16, -30588.79, -187500.02, -40104.04, 0.000, 0.000, 0.000, 14:57:34.718
255, -7102.91, -11456.72, 30715.32, 21190.15, -68754.55, -30595.09, -187500.02, -39950.41, 0.000, 0.000, 0.000, 14:57:34.718
0, -7100.50, -11321.52, 30724.51, 21185.81, -68757.38, -30588.94, -187500.02, -39772.25, 0.008, -0.018, 1.014, 14:57:34.718
1, -7085.01, -11497.16, 30743.33, 21177.41, -68775.80, -30583.67, -187500.02, -39842.74, 0.000, 0.000, 0.000, 14:57:34.723
2, -7086.82, -11800.40, 30737.87, 21169.83, -68788.48, -30601.08, -187500.02, -40110.07, 0.000, 0.000, 0.000, 14:57:34.723
3, -7099.45, -11505.87, 30719.03, 21194.44, -68751.66, -30597.03, -187500.02, -39986.35, 0.000, 0.000, 0.000, 14:57:34.723
4, -7100.75, -11302.61, 30723.14, 21187.80, -68755.87, -30583.64, -187500.02, -39793.52, 0.000, 0.000, 0.000, 14:57:34.723
5, -7092.03, -11418.25, 30736.49, 21176.78, -68774.10, -30582.26, -187500.02, -39803.45, 0.000, 0.000, 0.000, 14:57:34.723
6, -7084.09, -11763.05, 30743.24, 21168.24, -68791.38, -30590.28, -187500.02, -40082.71, 0.000, 0.000, 0.000, 14:57:34.723
7, -7098.33, -11566.69, 30719.81, 21188.76, -68758.48, -30597.82, -187500.02, -40029.27, 0.000, 0.000, 0.000, 14:57:34.723
8, -7103.85, -11326.61, 30714.11, 21185.61, -68759.44, -30602.24, -187500.02, -39824.75, 0.000, 0.000, 0.000, 14:57:34.724
9, -7102.69, -11365.55, 30720.37, 21176.44, -68772.05, -30600.41, -187500.02, -39760.13, 0.000, 0.000, 0.000, 14:57:34.724
10, -7100.05, -11709.72, 30724.60, 21153.64, -68806.02, -30611.09, -187500.02, -40036.58, 0.006, -0.018, 1.010, 14:57:34.724
11, -7104.77, -11645.50, 30715.52, 21178.12, -68776.92, -30611.83, -187500.02, -40070.35, 0.000, 0.000, 0.000, 14:57:34.724
12, -7117.89, -11346.01, 30706.29, 21181.99, -68767.38, -30615.16, -187500.02, -39854.41, 0.000, 0.000, 0.000, 14:57:34.724
13, -7113.80, -11336.00, 30712.70, 21173.79, -68778.23, -30604.86, -187500.02, -39752.89, 0.000, 0.000, 0.000, 14:57:34.724
14, -7101.95, -11658.76, 30727.84, 21155.70, -68803.49, -30598.98, -187500.02, -39987.89, 0.000, 0.000, 0.000, 14:57:34.724
15, -7108.44, -11695.04, 30712.82, 21170.88, -68784.34, -30604.39, -187500.02, -40095.95, 0.000, 0.000, 0.000, 14:57:34.724
16, -7123.77, -11358.91, 30697.46, 21174.32, -68771.89, -30613.71, -187500.02, -39884.70, 0.000, 0.000, 0.000, 14:57:34.725
17, -7115.66, -11300.55, 30709.66, 21170.37, -68775.51, -30600.74, -187500.02, -39749.20, 0.000, 0.000, 0.000, 14:57:34.725
18, -7102.36, -11595.66, 30724.97, 21154.32, -68800.70, -30605.66, -187500.02, -39943.17, 0.000, 0.000, 0.000, 14:57:34.725
19, -7112.48, -11746.87, 30710.71, 21159.46, -68795.56, -30617.57, -187500.02, -40120.44, 0.000, 0.000, 0.000, 14:57:34.725
20, -7120.86, -11402.70, 30700.16, 21178.68, -68767.20, -30614.65, -187500.02, -39925.40, 0.002, -0.014, 1.010, 14:57:34.725
21, -7115.05, -11290.63, 30714.96, 21176.06, -68768.45, -30602.58, -187500.02, -39756.24, 0.000, 0.000, 0.000, 14:57:34.725
22, -7107.09, -11523.29, 30730.38, 21158.12, -68795.38, -30599.36, -187500.02, -39886.69, 0.000, 0.000, 0.000, 14:57:34.725
23, -7117.56, -11754.54, 30717.62, 21153.09, -68801.88, -30612.19, -187500.02, -40122.12, 0.000, 0.000, 0.000, 14:57:34.725
24, -7132.69, -11429.00, 30696.83, 21170.43, -68773.03, -30612.88, -187500.02, -39964.07, 0.000, 0.000, 0.000, 14:57:34.726
25, -7122.70, -11289.55, 30708.30, 21169.18, -68772.94, -30603.94, -187500.02, -39784.02, 0.000, 0.000, 0.000, 14:57:34.726
26, -7108.08, -11459.38, 30728.55, 21160.75, -68786.33, -30599.20, -187500.02, -39840.35, 0.000, 0.000, 0.000, 14:57:34.726
27, -7103.34, -11754.83, 30727.34, 21157.87, -68797.13, -30615.85, -187500.02, -40104.93, 0.000, 0.000, 0.000, 14:57:34.726
28, -7120.98, -11476.70, 30700.66, 21179.91, -68771.30, -30633.80, -187500.02, -40006.02, 0.000, 0.000, 0.000, 14:57:34.726
29, -7119.08, -11256.88, 30706.85, 21175.66, -68772.11, -30627.79, -187500.02, -39807.16, 0.000, 0.000, 0.000, 14:57:34.726
30, -7103.67, -11378.78, 30730.54, 21171.71, -68779.02, -30606.04, -187500.02, -39806.31, 0.002, -0.022, 1.014, 14:57:34.726
31, -7112.46, -11719.73, 30727.12, 21146.67, -68808.30, -30615.83, -187500.02, -40088.37, 0.000, 0.000, 0.000, 14:57:34.726
32, -7120.19, -11542.75, 30715.25, 21170.32, -68772.43, -30609.62, -187500.02, -40054.04, 0.000, 0.000, 0.000, 14:57:34.727
33, -7118.52, -11280.50, 30716.97, 21174.32, -68767.62, -30609.64, -187500.02, -39843.23, 0.000, 0.000, 0.000, 14:57:34.727
34, -7113.44, -11328.45, 30723.32, 21168.55, -68775.27, -30607.52, -187500.02, -39775.62, 0.000, 0.000, 0.000, 14:57:34.727
35, -7117.73, -11664.84, 30723.37, 21139.85, -68812.62, -30623.79, -187500.02, -40045.54, 0.000, 0.000, 0.000, 14:57:34.727
36, -7121.40, -11624.85, 30714.80, 21163.95, -68782.55, -30623.54, -187500.02, -40104.50, 0.000, 0.000, 0.000, 14:57:34.727
37, -7126.09, -11287.03, 30708.46, 21178.32, -68763.95, -30616.01, -187500.02, -39869.59, 0.000, 0.000, 0.000, 14:57:34.727
38, -7109.69, -11274.35, 30724.88, 21178.72, -68769.56, -30608.97, -187500.02, -39758.54, 0.000, 0.000, 0.000, 14:57:34.727
39, -7095.74, -11592.42, 30738.25, 21164.75, -68794.80, -30619.83, -187500.02, -39988.84, 0.000, 0.000, 0.000, 14:57:34.727
40, -7111.05, -11676.19, 30712.86, 21170.54, -68783.52, -30636.26, -187500.02, -40127.08, 0.006, -0.020, 1.016, 14:57:34.727
41, -7128.95, -11328.45, 30691.51, 21178.90, -68767.66, -30627.28, -187500.02, -39915.72, 0.000, 0.000, 0.000, 14:57:34.728
42, -7120.66, -11278.00, 30702.87, 21173.27, -68774.26, -30621.69, -187500.02, -39770.52, 0.000, 0.000, 0.000, 14:57:34.728
43, -7110.45, -11565.49, 30718.31, 21154.70, -68803.85, -30632.66, -187500.02, -39951.60, 0.000, 0.000, 0.000, 14:57:34.728
44, -7127.84, -11731.16, 30704.01, 21148.53, -68804.34, -30631.48, -187500.02, -40153.90, 0.000, 0.000, 0.000, 14:57:34.728
45, -7124.10, -11392.59, 30706.96, 21175.13, -68770.17, -30613.26, -187500.02, -39970.71, 0.000, 0.000, 0.000, 14:57:34.728
46, -7111.99, -11285.51, 30720.53, 21179.82, -68764.65, -30610.29, -187500.02, -39784.34, 0.000, 0.000, 0.000, 14:57:34.728
47, -7106.38, -11485.98, 30734.63, 21158.23, -68793.02, -30612.68, -187500.02, -39887.60, 0.000, 0.000, 0.000, 14:57:34.728
48, -7103.52, -11749.10, 30735.77, 21156.69, -68797.55, -30617.96, -187500.02, -40146.30, 0.000, 0.000, 0.000, 14:57:34.728
49, -7118.81, -11436.63, 30709.78, 21176.91, -68765.19, -30617.46, -187500.02, -40003.81, 0.000, 0.000, 0.000, 14:57:34.729
50, -7118.16, -11260.00, 30712.21, 21175.62, -68765.61, -30615.63, -187500.02, -39797.59, 0.006, -0.018, 1.012, 14:57:34.729
51, -7107.90, -11416.62, 30724.80, 21160.35, -68788.84, -30620.77, -187500.02, -39840.17, 0.000, 0.000, 0.000, 14:57:34.729
52, -7111.48, -11746.33, 30724.13, 21141.13, -68809.15, -30632.04, -187500.02, -40131.08, 0.000, 0.000, 0.000, 14:57:34.729
53, -7120.44, -11510.52, 30710.38, 21165.74, -68774.13, -30629.44, -187500.02, -40049.79, 0.000, 0.000, 0.000, 14:57:34.729
54, -7118.31, -11284.99, 30714.74, 21170.16, -68769.37, -30628.64, -187500.02, -39828.17, 0.000, 0.000, 0.000, 14:57:34.729
55, -7114.54, -11367.63, 30721.62, 21156.06, -68788.88, -30636.33, -187500.02, -39798.06, 0.000, 0.000, 0.000, 14:57:34.729
56, -7109.96, -11714.57, 30729.20, 21135.50, -68813.15, -30630.88, -187500.02, -40093.53, 0.000, 0.000, 0.000, 14:57:34.729
57, -7123.66, -11570.02, 30708.48, 21160.66, -68778.08, -30630.96, -187500.02, -40083.74, 0.000, 0.000, 0.000, 14:57:34.730
58, -7133.47, -11275.49, 30698.35, 21160.04, -68774.39, -30636.84, -187500.02, -39852.31, 0.000, 0.000, 0.000, 14:57:34.730
59, -7118.45, -11316.08, 30716.21, 21157.83, -68782.44, -30626.85, -187500.02, -39774.30, 0.000, 0.000, 0.000, 14:57:34.730
60, -7105.10, -11675.25, 30737.29, 21142.96, -68806.45, -30621.26, -187500.02, -40054.41, 0.006, -0.016, 1.010, 14:57:34.730
61, -7126.79, -11630.46, 30709.08, 21157.40, -68782.55, -30631.21, -187500.02, -40114.54, 0.000, 0.000, 0.000, 14:57:34.730
62, -7136.46, -11296.08, 30698.15, 21159.61, -68775.40, -30637.96, -187500.02, -39893.28, 0.000, 0.000, 0.000, 14:57:34.730
63, -7119.30, -11283.18, 30715.88, 21164.58, -68774.80, -30625.82, -187500.02, -39769.47, 0.000, 0.000, 0.000, 14:57:34.730
64, -7113.78, -11597.83, 30725.20, 21141.58, -68808.84, -30634.07, -187500.02, -40000.05, 0.000, 0.000, 0.000, 14:57:34.730
65, -7122.65, -11704.49, 30714.45, 21151.54, -68792.50, -30639.97, -187500.02, -40159.38, 0.000, 0.000, 0.000, 14:57:34.730
66, -7129.27, -11361.62, 30705.42, 21169.69, -68765.68, -30631.37, -187500.02, -39945.49, 0.000, 0.000, 0.000, 14:57:34.731
67, -7126.38, -11286.09, 30709.44, 21165.71, -68772.31, -30637.00, -187500.02, -39775.24, 0.000, 0.000, 0.000, 14:57:34.731
68, -7124.75, -11549.24, 30720.91, 21138.38, -68808.68, -30640.57, -187500.02, -39942.88, 0.000, 0.000, 0.000, 14:57:34.731
69, -7129.56, -11739.47, 30715.68, 21138.31, -68805.30, -30634.41, -187500.02, -40163.85, 0.004, -0.020, 1.012, 14:57:34.731
70, -7138.12, -11402.76, 30699.63, 21160.60, -68772.85, -30629.69, -187500.02, -39986.62, 0.000, 0.000, 0.000, 14:57:34.731
71, -7130.52, -11276.37, 30710.29, 21163.08, -68770.77, -30626.11, -187500.02, -39787.15, 0.000, 0.000, 0.000, 14:57:34.731
72, -7126.38, -11478.27, 30724.24, 21145.71, -68801.33, -30635.21, -187500.02, -39884.94, 0.000, 0.000, 0.000, 14:57:34.731
73, -7136.51, -11742.73, 30713.40, 21131.72, -68817.04, -30646.50, -187500.02, -40151.24, 0.000, 0.000, 0.000, 14:57:34.731
74, -7139.91, -11463.25, 30699.36, 21152.80, -68780.92, -30642.21, -187500.02, -40034.19, 0.000, 0.000, 0.000, 14:57:34.732
75, -7137.67, -11294.54, 30702.89, 21149.58, -68781.45, -30640.24, -187500.02, -39835.41, 0.000, 0.000, 0.000, 14:57:34.732
76, -7127.46, -11438.77, 30719.79, 21138.83, -68800.73, -30637.85, -187500.02, -39867.04, 0.000, 0.000, 0.000, 14:57:34.732
77, -7127.50, -11755.43, 30720.26, 21124.66, -68821.80, -30653.18, -187500.02, -40150.30, 0.000, 0.000, 0.000, 14:57:34.732
78, -7139.28, -11548.97, 30705.26, 21146.29, -68789.03, -30657.58, -187500.02, -40090.13, 0.000, 0.000, 0.000, 14:57:34.732
79, -7136.55, -11316.04, 30710.74, 21152.64, -68779.34, -30641.65, -187500.02, -39867.71, 0.002, -0.020, 1.008, 14:57:34.732
80, -7123.41, -11393.62, 30725.89, 21145.93, -68792.99, -30638.21, -187500.02, -39829.46, 0.000, 0.000, 0.000, 14:57:34.732
81, -7118.47, -11742.87, 30732.11, 21130.09, -68819.32, -30640.11, -187500.02, -40113.80, 0.000, 0.000, 0.000, 14:57:34.732
82, -7134.25, -11607.39, 30705.60, 21151.48, -68789.86, -30648.17, -187500.02, -40119.99, 0.000, 0.000, 0.000, 14:57:34.733
83, -7143.46, -11312.08, 30695.34, 21150.09, -68784.30, -30653.58, -187500.02, -39897.57, 0.000, 0.000, 0.000, 14:57:34.733
84, -7143.55, -11338.57, 30699.88, 21133.48, -68801.51, -30655.06, -187500.02, -39817.78, 0.000, 0.000, 0.000, 14:57:34.733
85, -7124.42, -11688.11, 30725.58, 21123.61, -68823.84, -30653.99, -187500.02, -40079.52, 0.000, 0.000, 0.000, 14:57:34.733
86, -7142.41, -11665.20, 30699.94, 21138.80, -68799.80, -30668.40, -187500.02, -40153.05, 0.000, 0.000, 0.000, 14:57:34.733
87, -7147.69, -11326.34, 30695.92, 21148.68, -68781.55, -30658.34, -187500.02, -39930.34, 0.000, 0.000, 0.000, 14:57:34.733
88, -7129.02, -11314.90, 30720.48, 21151.23, -68782.62, -30634.99, -187500.02, -39806.55, 0.000, 0.000, 0.000, 14:57:34.733
89, -7121.00, -11611.19, 30729.02, 21134.56, -68809.48, -30647.28, -187500.02, -40009.93, 0.002, -0.022, 1.008, 14:57:35.197
90, -7133.92, -11697.72, 30709.93, 21138.63, -68799.61, -30659.35, -187500.02, -40162.15, 0.000, 0.000, 0.000, 14:57:35.197
91, -7141.05, -11352.45, 30700.59, 21152.86, -68776.34, -30651.62, -187500.02, -39965.61, 0.000, 0.000, 0.000, 14:57:35.197
92, -7129.00, -11289.67, 30716.35, 21152.30, -68778.48, -30637.60, -187500.02, -39808.68, 0.000, 0.000, 0.000, 14:57:35.197
93, -7123.86, -11546.69, 30729.74, 21137.66, -68804.32, -30642.81, -187500.02, -39955.62, 0.000, 0.000, 0.000, 14:57:35.197
94, -7131.59, -11746.67, 30716.17, 21138.29, -68802.06, -30653.05, -187500.02, -40172.21, 0.000, 0.000, 0.000, 14:57:35.197
95, -7138.86, -11428.49, 30704.52, 21158.07, -68772.94, -30651.55, -187500.02, -40012.44, 0.000, 0.000, 0.000, 14:57:35.197
96, -7131.10, -11327.17, 30712.64, 21156.33, -68777.21, -30650.32, -187500.02, -39842.48, 0.000, 0.000, 0.000, 14:57:35.197
97, -7120.35, -11511.06, 30726.29, 21145.96, -68795.27, -30646.41, -187500.02, -39914.45, 0.000, 0.000, 0.000, 14:57:35.198
98, -7132.11, -11771.52, 30718.18, 21134.02, -68807.98, -30653.25, -187500.02, -40168.96, 0.000, 0.000, 0.000, 14:57:35.198
99, -7145.54, -11485.09, 30701.64, 21153.11, -68780.59, -30651.64, -187500.02, -40061.95, 0.002, -0.018, 1.008, 14:57:35.198
100, -7138.23, -11308.10, 30712.93, 21154.54, -68773.45, -30639.68, -187500.02, -39867.26, 0.000, 0.000, 0.000, 14:57:35.198
101, -7129.18, -11445.52, 30725.58, 21144.21, -68790.22, -30643.17, -187500.02, -39885.93, 0.000, 0.000, 0.000, 14:57:35.198
102, -7129.92, -11772.31, 30726.47, 21129.62, -68812.08, -30657.09, -187500.02, -40162.66, 0.000, 0.000, 0.000, 14:57:35.198
103, -7144.98, -11565.40, 30706.83, 21151.48, -68778.88, -30663.78, -187500.02, -40104.97, 0.000, 0.000, 0.000, 14:57:35.198
104, -7147.91, -11311.64, 30709.48, 21150.67, -68774.88, -30656.06, -187500.02, -39888.52, 0.000, 0.000, 0.000, 14:57:35.198
105, -7131.73, -11395.75, 30729.91, 21150.65, -68782.13, -30641.16, -187500.02, -39852.36, 0.000, 0.000, 0.000, 14:57:35.198
106, -7130.47, -11743.49, 30732.11, 21131.21, -68807.74, -30649.36, -187500.02, -40126.52, 0.000, 0.000, 0.000, 14:57:35.198
107, -7145.56, -11628.07, 30708.81, 21150.27, -68777.32, -30651.04, -187500.02, -40143.38, 0.000, 0.000, 0.000, 14:57:35.198
108, -7151.24, -11321.87, 30702.45, 21157.87, -68764.83, -30650.37, -187500.02, -39926.45, 0.000, 0.000, 0.000, 14:57:35.199
109, -7139.91, -11343.55, 30715.59, 21153.98, -68771.95, -30644.96, -187500.02, -39835.86, 0.002, -0.020, 1.004, 14:57:35.199
110, -7141.54, -11663.97, 30711.45, 21135.09, -68805.51, -30661.34, -187500.02, -40072.56, 0.000, 0.000, 0.000, 14:57:35.199
111, -7157.68, -11679.93, 30688.86, 21145.53, -68787.58, -30667.53, -187500.02, -40167.60, 0.000, 0.000, 0.000, 14:57:35.199
112, -7176.63, -11351.69, 30670.12, 21149.40, -68773.45, -30670.57, -187500.02, -39957.07, 0.000, 0.000, 0.000, 14:57:35.199
113, -7167.06, -11328.71, 30679.36, 21147.86, -68780.43, -30672.65, -187500.02, -39831.25, 0.000, 0.000, 0.000, 14:57:35.199
114, -7172.83, -11634.28, 30677.79, 21120.92, -68816.88, -30692.16, -187500.02, -40029.49, 0.000, 0.000, 0.000, 14:57:35.199
115, -7193.73, -11770.63, 30659.30, 21116.09, -68814.36, -30702.53, -187500.02, -40197.13, 0.000, 0.000, 0.000, 14:57:35.199
116, -7204.79, -11422.28, 30645.43, 21135.61, -68784.83, -30693.08, -187500.02, -39997.17, 0.000, 0.000, 0.000, 14:57:35.199
117, -7200.17, -11341.86, 30649.40, 21133.04, -68788.19, -30679.24, -187500.02, -39838.81, 0.000, 0.000, 0.000, 14:57:35.199
118, -7189.53, -11600.87, 30663.55, 21115.78, -68812.39, -30672.65, -187500.02, -39978.98, 0.000, 0.000, 0.000, 14:57:35.199
119, -7201.78, -11826.78, 30641.96, 21111.45, -68820.82, -30697.33, -187500.02, -40202.63, 0.004, -0.022, 1.010, 14:57:35.199
120, -7212.06, -11508.11, 30627.12, 21128.52, -68792.03, -30694.82, -187500.02, -40046.39, 0.000, 0.000, 0.000, 14:57:35.199
121, -7206.00, -11351.47, 30634.61, 21129.51, -68790.28, -30680.36, -187500.02, -39851.95, 0.000, 0.000, 0.000, 14:57:35.200
122, -7190.31, -11523.71, 30648.82, 21122.60, -68810.94, -30682.78, -187500.02, -39923.19, 0.000, 0.000, 0.000, 14:57:35.200
123, -7193.66, -11808.22, 30644.75, 21115.71, -68819.84, -30691.04, -187500.02, -40188.01, 0.000, 0.000, 0.000, 14:57:35.200
124, -7203.43, -11543.76, 30631.68, 21135.90, -68788.38, -30696.48, -187500.02, -40083.54, 0.000, 0.000, 0.000, 14:57:35.200
125, -7201.60, -11347.78, 30638.96, 21135.00, -68787.63, -30700.12, -187500.02, -39879.91, 0.000, 0.000, 0.000, 14:57:35.200
126, -7180.03, -11471.54, 30666.17, 21131.54, -68794.84, -30676.03, -187500.02, -39888.56, 0.000, 0.000, 0.000, 14:57:35.200
127, -7176.70, -11814.73, 30668.71, 21118.46, -68813.24, -30677.52, -187500.02, -40171.45, 0.000, 0.000, 0.000, 14:57:35.200
128, -7200.93, -11621.86, 30643.82, 21131.25, -68788.84, -30689.82, -187500.02, -40126.21, 0.000, 0.000, 0.000, 14:57:35.200
129, -7206.78, -11360.81, 30643.10, 21127.40, -68786.73, -30690.22, -187500.02, -39912.35, 0.002, -0.022, 1.012, 14:57:35.200
130, -7194.51, -11416.80, 30656.82, 21122.87, -68796.41, -30686.93, -187500.02, -39864.09, 0.000, 0.000, 0.000, 14:57:35.200
131, -7189.53, -11737.06, 30660.13, 21105.92, -68823.09, -30704.48, -187500.02, -40126.27, 0.000, 0.000, 0.000, 14:57:35.200
132, -7199.81, -11648.19, 30647.37, 21124.32, -68797.52, -30711.05, -187500.02, -40163.31, 0.000, 0.000, 0.000, 14:57:35.200
133, -7191.81, -11338.03, 30659.26, 21139.68, -68775.96, -30688.56, -187500.02, -39939.91, 0.000, 0.000, 0.000, 14:57:35.200
134, -7180.77, -11356.14, 30677.46, 21130.87, -68785.26, -30674.95, -187500.02, -39848.78, 0.000, 0.000, 0.000, 14:57:35.200
135, -7177.03, -11684.96, 30689.06, 21109.61, -68816.48, -30680.88, -187500.02, -40088.28, 0.000, 0.000, 0.000, 14:57:35.200
136, -7191.56, -11702.08, 30674.26, 21120.36, -68799.45, -30690.69, -187500.02, -40186.49, 0.000, 0.000, 0.000, 14:57:35.200
137, -7191.79, -11360.43, 30676.52, 21133.66, -68776.70, -30679.40, -187500.02, -39974.15, 0.000, 0.000, 0.000, 14:57:35.201
138, -7180.10, -11316.26, 30690.33, 21134.71, -68776.78, -30672.29, -187500.02, -39835.86, 0.000, 0.000, 0.000, 14:57:35.201
139, -7172.88, -11606.84, 30701.17, 21114.15, -68810.76, -30680.47, -187500.02, -40029.34, 0.002, -0.020, 1.012, 14:57:35.201
140, -7176.94, -11765.51, 30692.43, 21121.86, -68802.49, -30694.35, -187500.02, -40210.54, 0.000, 0.000, 0.000, 14:57:35.201
141, -7186.24, -11427.20, 30675.47, 21138.58, -68777.32, -30695.58, -187500.02, -40021.36, 0.000, 0.000, 0.000, 14:57:35.201
142, -7175.31, -11335.11, 30694.67, 21138.29, -68775.69, -30673.41, -187500.02, -39855.48, 0.000, 0.000, 0.000, 14:57:35.201
143, -7169.01, -11552.97, 30706.69, 21116.83, -68803.00, -30679.82, -187500.02, -39976.27, 0.000, 0.000, 0.000, 14:57:35.201
144, -7182.87, -11781.69, 30690.98, 21101.83, -68820.80, -30705.73, -187500.02, -40221.49, 0.000, 0.000, 0.000, 14:57:35.201
145, -7185.55, -11479.95, 30681.19, 21125.28, -68786.48, -30693.57, -187500.02, -40080.63, 0.000, 0.000, 0.000, 14:57:35.201
146, -7176.70, -11324.15, 30696.01, 21131.32, -68778.04, -30671.22, -187500.02, -39887.78, 0.000, 0.000, 0.000, 14:57:35.201
147, -7162.30, -11490.85, 30720.62, 21122.04, -68794.51, -30667.46, -187500.02, -39946.61, 0.000, 0.000, 0.000, 14:57:35.201
148, -7161.25, -11806.21, 30719.99, 21111.49, -68809.15, -30678.21, -187500.02, -40223.41, 0.000, 0.000, 0.000, 14:57:35.201
149, -7173.77, -11540.07, 30697.28, 21132.86, -68775.51, -30687.85, -187500.02, -40115.17, 0.002, -0.016, 1.006, 14:57:35.201
150, -7171.60, -11336.67, 30704.14, 21131.49, -68774.23, -30684.41, -187500.02, -39913.17, 0.000, 0.000, 0.000, 14:57:35.201
151, -7154.88, -11437.97, 30728.17, 21129.30, -68781.37, -30662.48, -187500.02, -39900.95, 0.000, 0.000, 0.000, 14:57:35.201
152, -7148.33, -11777.74, 30733.63, 21117.08, -68801.39, -30669.70, -187500.02, -40181.06, 0.000, 0.000, 0.000, 14:57:35.201
153, -7162.10, -11594.12, 30708.88, 21140.66, -68769.56, -30682.39, -187500.02, -40141.65, 0.000, 0.000, 0.000, 14:57:35.202
154, -7168.61, -11310.56, 30705.17, 21138.74, -68769.61, -30685.28, -187500.02, -39924.10, 0.000, 0.000, 0.000, 14:57:35.202
155, -7159.35, -11393.76, 30721.20, 21130.60, -68784.45, -30680.49, -187500.02, -39886.06, 0.000, 0.000, 0.000, 14:57:35.202
156, -7167.00, -11731.98, 30716.19, 21103.64, -68819.68, -30698.33, -187500.02, -40147.44, 0.000, 0.000, 0.000, 14:57:35.202
157, -7180.34, -11666.29, 30694.44, 21116.56, -68796.74, -30703.07, -187500.02, -40192.17, 0.000, 0.000, 0.000, 14:57:35.202
158, -7179.13, -11344.20, 30696.05, 21127.49, -68781.03, -30704.32, -187500.02, -39968.79, 0.000, 0.000, 0.000, 14:57:35.202
159, -7155.84, -11350.28, 30726.90, 21136.23, -68774.66, -30675.98, -187500.02, -39861.23, 0.002, -0.014, 1.014, 14:57:35.202
160, -7145.65, -11673.89, 30742.25, 21116.52, -68801.04, -30676.90, -187500.02, -40093.33, 0.000, 0.000, 0.000, 14:57:35.202
161, -7161.07, -11721.70, 30717.11, 21122.96, -68791.58, -30698.58, -187500.02, -40216.06, 0.000, 0.000, 0.000, 14:57:35.202
162, -7168.00, -11372.46, 30706.78, 21136.39, -68773.63, -30692.70, -187500.02, -40009.93, 0.000, 0.000, 0.000, 14:57:35.202
163, -7155.46, -11314.77, 30729.47, 21137.78, -68772.70, -30672.89, -187500.02, -39868.25, 0.000, 0.000, 0.000, 14:57:35.202
164, -7147.57, -11596.80, 30740.22, 21115.87, -68801.17, -30680.43, -187500.02, -40045.23, 0.000, 0.000, 0.000, 14:57:35.202
165, -7156.49, -11766.90, 30719.99, 21117.73, -68798.84, -30696.48, -187500.02, -40237.25, 0.000, 0.000, 0.000, 14:57:35.202
166, -7171.31, -11431.26, 30702.11, 21134.49, -68771.89, -30699.76, -187500.02, -40056.31, 0.000, 0.000, 0.000, 14:57:35.202
167, -7167.67, -11310.83, 30712.37, 21131.47, -68772.05, -30695.00, -187500.02, -39875.87, 0.000, 0.000, 0.000, 14:57:35.202
168, -7158.86, -11504.58, 30727.75, 21118.60, -68793.28, -30691.92, -187500.02, -39978.11, 0.000, 0.000, 0.000, 14:57:35.202
169, -7162.46, -11755.25, 30720.17, 21112.23, -68801.73, -30708.88, -187500.02, -40224.67, 0.000, -0.012, 1.010, 14:57:35.203
170, -7176.12, -11453.46, 30701.46, 21127.36, -68774.17, -30705.42, -187500.02, -40090.73, 0.000, 0.000, 0.000, 14:57:35.203
171, -7165.61, -11288.39, 30719.07, 21129.19, -68767.42, -30680.25, -187500.02, -39897.93, 0.000, 0.000, 0.000, 14:57:35.203
172, -7152.87, -11441.14, 30737.25, 21118.58, -68783.58, -30666.99, -187500.02, -39942.57, 0.000, 0.000, 0.000, 14:57:35.203
173, -7151.75, -11758.72, 30738.59, 21108.29, -68802.31, -30681.86, -187500.02, -40222.32, 0.000, 0.000, 0.000, 14:57:35.203
174, -7162.75, -11510.12, 30717.35, 21134.76, -68768.13, -30686.17, -187500.02, -40131.15, 0.000, 0.000, 0.000, 14:57:35.203
175, -7169.75, -11272.63, 30716.04, 21128.19, -68769.05, -30685.23, -187500.02, -39917.87, 0.000, 0.000, 0.000, 14:57:35.203
176, -7159.35, -11367.45, 30732.17, 21117.23, -68783.18, -30682.19, -187500.02, -39903.14, 0.000, 0.000, 0.000, 14:57:35.203
177, -7148.69, -11727.76, 30740.44, 21104.70, -68805.80, -30693.17, -187500.02, -40189.60, 0.000, 0.000, 0.000, 14:57:35.203
178, -7166.66, -11581.13, 30718.20, 21123.49, -68776.47, -30696.48, -187500.02, -40170.71, 0.004, -0.020, 1.016, 14:57:35.203
179, -7159.87, -11289.35, 30730.23, 21135.92, -68761.66, -30683.11, -187500.02, -39946.12, 0.000, 0.000, 0.000, 14:57:35.203
180, -7150.17, -11329.70, 30745.29, 21132.30, -68768.98, -30682.26, -187500.02, -39873.10, 0.000, 0.000, 0.000, 14:57:35.203
181, -7152.98, -11658.98, 30745.85, 21105.59, -68803.83, -30696.59, -187500.02, -40134.59, 0.000, 0.000, 0.000, 14:57:35.203
182, -7172.54, -11594.05, 30719.39, 21121.66, -68781.05, -30707.32, -187500.02, -40188.57, 0.000, 0.000, 0.000, 14:57:35.203
183, -7174.60, -11272.48, 30713.38, 21127.67, -68768.63, -30705.80, -187500.02, -39981.05, 0.000, 0.000, 0.000, 14:57:35.203
184, -7164.00, -11291.50, 30728.60, 21123.49, -68776.41, -30708.08, -187500.02, -39881.08, 0.000, 0.000, 0.000, 14:57:35.204
185, -7153.30, -11611.42, 30742.90, 21105.72, -68802.63, -30709.33, -187500.02, -40096.82, 0.000, 0.000, 0.000, 14:57:35.204
186, -7162.44, -11688.62, 30731.61, 21113.93, -68787.34, -30702.58, -187500.02, -40231.33, 0.000, 0.000, 0.000, 14:57:35.204
187, -7173.48, -11337.59, 30721.35, 21123.69, -68767.27, -30695.05, -187500.02, -40026.79, 0.000, 0.000, 0.000, 14:57:35.204
188, -7162.91, -11273.01, 30736.40, 21119.38, -68772.45, -30686.62, -187500.02, -39881.66, 0.006, -0.022, 1.016, 14:57:35.204
189, -7147.62, -11538.44, 30752.36, 21109.01, -68795.96, -30688.56, -187500.02, -40042.19, 0.000, 0.000, 0.000, 14:57:35.204
190, -7152.25, -11708.29, 30745.74, 21115.89, -68788.56, -30695.56, -187500.02, -40237.34, 0.000, 0.000, 0.000, 14:57:35.204
191, -7170.69, -11358.20, 30724.33, 21129.68, -68762.10, -30701.35, -187500.02, -40052.85, 0.000, 0.000, 0.000, 14:57:35.204
192, -7167.56, -11245.03, 30728.57, 21123.49, -68769.38, -30692.72, -187500.02, -39882.37, 0.000, 0.000, 0.000, 14:57:35.204
193, -7157.18, -11447.58, 30744.85, 21109.77, -68788.79, -30693.26, -187500.02, -39973.01, 0.000, 0.000, 0.000, 14:57:35.204
194, -7163.44, -11722.30, 30738.21, 21102.71, -68800.05, -30701.80, -187500.02, -40226.63, 0.000, 0.000, 0.000, 14:57:35.204
195, -7178.17, -11413.72, 30716.46, 21122.76, -68768.73, -30700.28, -187500.02, -40086.51, 0.000, 0.000, 0.000, 14:57:35.204
196, -7163.96, -11244.07, 30731.10, 21128.61, -68761.95, -30690.08, -187500.02, -39890.06, 0.000, 0.000, 0.000, 14:57:35.204
197, -7161.88, -11392.19, 30737.20, 21114.37, -68784.41, -30692.68, -187500.02, -39923.16, 0.000, 0.000, 0.000, 14:57:35.204
198, -7163.20, -11727.94, 30737.29, 21095.42, -68807.70, -30702.02, -187500.02, -40213.18, 0.008, -0.018, 0.990, 14:57:35.204
199, -7175.56, -11500.69, 30719.12, 21118.66, -68770.33, -30706.40, -187500.02, -40135.71, 0.000, 0.000, 0.000, 14:57:35.205
200, -7170.89, -11268.39, 30724.26, 21124.10, -68766.41, -30703.45, -187500.02, -39923.88, 0.000, 0.000, 0.000, 14:57:35.205
201, -7161.74, -11367.92, 30735.50, 21116.61, -68782.35, -30699.65, -187500.02, -39899.67, 0.000, 0.000, 0.000, 14:57:35.205
202, -7166.33, -11691.97, 30728.57, 21094.08, -68813.06, -30713.67, -187500.02, -40175.52, 0.000, 0.000, 0.000, 14:57:35.205
203, -7173.03, -11556.23, 30718.11, 21116.47, -68778.98, -30711.38, -187500.02, -40175.25, 0.000, 0.000, 0.000, 14:57:35.205
204, -7172.36, -11293.73, 30720.33, 21123.16, -68767.91, -30703.58, -187500.02, -39967.62, 0.000, 0.000, 0.000, 14:57:35.205
205, -7172.85, -11334.61, 30722.81, 21111.91, -68783.36, -30704.48, -187500.02, -39889.64, 0.000, 0.000, 0.000, 14:57:35.205
206, -7167.13, -11673.96, 30734.61, 21094.57, -68811.79, -30709.15, -187500.02, -40141.38, 0.000, 0.000, 0.000, 14:57:35.205
207, -7171.56, -11651.65, 30726.34, 21116.72, -68782.84, -30705.42, -187500.02, -40212.89, 0.000, 0.000, 0.000, 14:57:35.205
208, -7179.00, -11327.37, 30723.14, 21124.25, -68767.35, -30706.07, -187500.02, -40001.89, 0.008, -0.024, 1.000, 14:57:35.205
209, -7176.90, -11301.47, 30730.27, 21113.64, -68779.76, -30706.09, -187500.02, -39881.41, 0.000, 0.000, 0.000, 14:57:35.674
210, -7166.89, -11619.44, 30742.46, 21093.27, -68810.34, -30710.78, -187500.02, -40097.31, 0.000, 0.000, 0.000, 14:57:35.675
211, -7178.22, -11712.89, 30725.06, 21100.74, -68800.66, -30722.70, -187500.02, -40242.10, 0.000, 0.000, 0.000, 14:57:35.675
212, -7188.23, -11357.84, 30712.59, 21116.65, -68780.61, -30722.56, -187500.02, -40037.47, 0.000, 0.000, 0.000, 14:57:35.675
213, -7183.49, -11285.15, 30726.34, 21112.21, -68787.76, -30718.02, -187500.02, -39887.31, 0.000, 0.000, 0.000, 14:57:35.675
214, -7176.56, -11539.40, 30736.20, 21091.31, -68814.23, -30721.06, -187500.02, -40044.64, 0.000, 0.000, 0.000, 14:57:35.675
215, -7179.27, -11733.15, 30725.29, 21092.96, -68812.26, -30730.76, -187500.02, -40259.78, 0.000, 0.000, 0.000, 14:57:35.676
216, -7192.01, -11413.65, 30705.95, 21107.18, -68786.35, -30734.16, -187500.02, -40095.95, 0.000, 0.000, 0.000, 14:57:35.676
217, -7190.04, -11272.30, 30713.06, 21108.23, -68783.69, -30714.54, -187500.02, -39902.71, 0.000, 0.000, 0.000, 14:57:35.676
218, -7180.54, -11474.98, 30728.46, 21087.78, -68811.54, -30712.10, -187500.02, -39995.11, 0.004, -0.022, 1.004, 14:57:35.676
219, -7177.77, -11758.51, 30724.62, 21082.30, -68821.45, -30724.75, -187500.02, -40252.76, 0.000, 0.000, 0.000, 14:57:35.676
220, -7196.26, -11454.87, 30699.85, 21100.78, -68790.91, -30732.96, -187500.02, -40121.27, 0.000, 0.000, 0.000, 14:57:35.676
221, -7188.72, -11273.91, 30716.35, 21101.12, -68787.02, -30709.22, -187500.02, -39928.06, 0.000, 0.000, 0.000, 14:57:35.676
222, -7173.08, -11431.17, 30742.86, 21097.56, -68796.07, -30697.93, -187500.02, -39952.18, 0.000, 0.000, 0.000, 14:57:35.677
223, -7179.58, -11757.17, 30736.98, 21081.25, -68818.85, -30715.07, -187500.02, -40225.81, 0.000, 0.000, 0.000, 14:57:35.677
224, -7197.84, -11539.78, 30709.37, 21101.41, -68788.74, -30722.56, -187500.02, -40162.06, 0.000, 0.000, 0.000, 14:57:35.677
225, -7202.29, -11275.09, 30705.80, 21098.86, -68786.69, -30727.23, -187500.02, -39945.23, 0.000, 0.000, 0.000, 14:57:35.677
226, -7185.95, -11361.93, 30729.13, 21095.24, -68797.13, -30722.40, -187500.02, -39914.54, 0.000, 0.000, 0.000, 14:57:35.677
227, -7187.02, -11713.25, 30731.84, 21073.92, -68827.21, -30735.99, -187500.02, -40191.30, 0.000, 0.000, 0.000, 14:57:35.677
228, -7204.95, -11597.83, 30706.36, 21089.94, -68804.52, -30745.25, -187500.02, -40200.75, 0.004, -0.024, 1.012, 14:57:35.678
229, -7203.23, -11306.38, 30707.76, 21098.35, -68789.88, -30732.55, -187500.02, -39985.01, 0.000, 0.000, 0.000, 14:57:35.678
230, -7191.76, -11309.00, 30721.20, 21100.25, -68793.19, -30723.66, -187500.02, -39888.03, 0.000, 0.000, 0.000, 14:57:35.678
231, -7182.40, -11641.88, 30732.78, 21081.67, -68823.34, -30730.63, -187500.02, -40143.15, 0.000, 0.000, 0.000, 14:57:35.678
232, -7190.20, -11662.02, 30718.38, 21094.97, -68801.22, -30729.83, -187500.02, -40241.03, 0.000, 0.000, 0.000, 14:57:35.678
233, -7196.75, -11317.85, 30711.32, 21109.68, -68779.71, -30726.81, -187500.02, -40015.37, 0.000, 0.000, 0.000, 14:57:35.678
234, -7191.92, -11279.94, 30720.71, 21100.22, -68790.71, -30726.18, -187500.02, -39893.01, 0.000, 0.000, 0.000, 14:57:35.678
235, -7185.48, -11577.06, 30734.38, 21078.97, -68821.71, -30731.39, -187500.02, -40101.00, 0.000, 0.000, 0.000, 14:57:35.679
236, -7195.92, -11685.20, 30716.26, 21084.76, -68815.25, -30749.32, -187500.02, -40263.22, 0.000, 0.000, 0.000, 14:57:35.679
237, -7204.91, -11334.95, 30707.14, 21101.48, -68790.28, -30743.73, -187500.02, -40065.39, 0.000, 0.000, 0.000, 14:57:35.679
238, -7193.04, -11272.63, 30731.59, 21103.42, -68790.30, -30729.98, -187500.02, -39916.17, 0.000, -0.020, 1.012, 14:57:35.679
239, -7186.98, -11508.98, 30740.20, 21086.01, -68815.72, -30730.79, -187500.02, -40049.72, 0.000, 0.000, 0.000, 14:57:35.679
240, -7188.21, -11708.80, 30726.79, 21087.73, -68815.30, -30745.52, -187500.02, -40261.44, 0.000, 0.000, 0.000, 14:57:35.679
241, -7188.48, -11384.68, 30712.64, 21112.65, -68781.79, -30741.22, -187500.02, -40107.57, 0.000, 0.000, 0.000, 14:57:35.679
242, -7177.97, -11246.21, 30730.65, 21118.66, -68773.01, -30715.68, -187500.02, -39923.72, 0.000, 0.000, 0.000, 14:57:35.680
243, -7172.14, -11436.83, 30744.20, 21101.99, -68797.02, -30715.12, -187500.02, -40001.17, 0.000, 0.000, 0.000, 14:57:35.680
244, -7176.25, -11743.96, 30739.62, 21090.72, -68811.38, -30725.06, -187500.02, -40276.03, 0.000, 0.000, 0.000, 14:57:35.680
245, -7189.42, -11451.92, 30714.56, 21116.68, -68778.98, -30731.39, -187500.02, -40160.38, 0.000, 0.000, 0.000, 14:57:35.680
246, -7179.65, -11263.40, 30730.14, 21122.64, -68772.00, -30714.58, -187500.02, -39964.94, 0.000, 0.000, 0.000, 14:57:35.680
247, -7177.66, -11376.23, 30735.84, 21110.22, -68785.30, -30720.06, -187500.02, -39962.14, 0.000, 0.000, 0.000, 14:57:35.680
248, -7186.40, -11698.25, 30729.83, 21084.67, -68817.48, -30744.80, -187500.02, -40245.21, 0.002, -0.018, 1.002, 14:57:35.680
249, -7193.57, -11519.28, 30714.04, 21109.28, -68785.05, -30742.95, -187500.02, -40206.27, 0.000, 0.000, 0.000, 14:57:35.680
250, -7185.24, -11268.90, 30724.51, 21119.63, -68771.20, -30728.86, -187500.02, -39988.01, 0.000, 0.000, 0.000, 14:57:35.680
251, -7179.74, -11331.08, 30735.73, 21110.35, -68783.83, -30730.76, -187500.02, -39935.82, 0.000, 0.000, 0.000, 14:57:35.680
252, -7185.08, -11693.14, 30731.81, 21077.11, -68822.61, -30745.09, -187500.02, -40225.50, 0.000, 0.000, 0.000, 14:57:35.680
253, -7199.47, -11609.94, 30712.10, 21095.78, -68791.88, -30738.59, -187500.02, -40248.85, 0.000, 0.000, 0.000, 14:57:35.681
254, -7196.30, -11317.92, 30716.93, 21108.18, -68776.74, -30732.22, -187500.02, -40032.53, 0.000, 0.000, 0.000, 14:57:35.681
255, -7183.56, -11325.49, 30734.05, 21107.89, -68780.31, -30734.45, -187500.02, -39922.70, 0.000, 0.000, 0.000, 14:57:35.681
0, -7178.58, -11658.78, 30742.79, 21082.41, -68814.63, -30739.10, -187500.02, -40166.46, 0.000, 0.000, 0.000, 14:57:35.681
1, -7188.01, -11690.43, 30725.91, 21097.65, -68793.73, -30735.48, -187500.02, -40279.52, 0.000, 0.000, 0.000, 14:57:35.681
2, -7198.51, -11341.03, 30714.13, 21107.73, -68778.26, -30737.83, -187500.02, -40065.48, 0.004, -0.016, 1.006, 14:57:35.681
3, -7183.90, -11307.99, 30738.86, 21110.26, -68777.70, -30726.41, -187500.02, -39930.45, 0.000, 0.000, 0.000, 14:57:35.681
4, -7180.81, -11596.08, 30747.46, 21088.33, -68811.56, -30737.89, -187500.02, -40121.09, 0.000, 0.000, 0.000, 14:57:35.681
5, -7192.39, -11740.97, 30733.83, 21090.79, -68805.44, -30747.64, -187500.02, -40299.21, 0.000, 0.000, 0.000, 14:57:35.681
6, -7210.81, -11393.04, 30710.76, 21098.39, -68786.46, -30755.37, -187500.02, -40105.18, 0.000, 0.000, 0.000, 14:57:35.681
7, -7198.56, -11295.03, 30729.83, 21099.85, -68782.73, -30727.99, -187500.02, -39935.84, 0.000, 0.000, 0.000, 14:57:35.681
8, -7192.55, -11533.01, 30739.88, 21080.91, -68811.38, -30732.73, -187500.02, -40068.47, 0.000, 0.000, 0.000, 14:57:35.681
9, -7203.92, -11758.96, 30723.10, 21077.34, -68820.26, -30751.35, -187500.02, -40303.37, 0.000, 0.000, 0.000, 14:57:35.681
10, -7213.82, -11440.79, 30713.49, 21096.34, -68789.59, -30749.16, -187500.02, -40149.86, 0.000, 0.000, 0.000, 14:57:35.682
11, -7205.35, -11308.10, 30730.27, 21096.89, -68787.38, -30740.62, -187500.02, -39962.79, 0.000, 0.000, 0.000, 14:57:35.682
12, -7194.38, -11496.08, 30739.08, 21083.55, -68807.52, -30747.57, -187500.02, -40023.05, 0.002, -0.018, 1.006, 14:57:35.682
13, -7199.65, -11794.05, 30731.84, 21070.18, -68824.04, -30755.89, -187500.02, -40295.95, 0.000, 0.000, 0.000, 14:57:35.682
14, -7211.50, -11522.70, 30715.81, 21090.95, -68788.88, -30747.06, -187500.02, -40199.19, 0.000, 0.000, 0.000, 14:57:35.682
15, -7204.55, -11311.68, 30725.33, 21094.66, -68781.92, -30739.50, -187500.02, -39989.50, 0.000, 0.000, 0.000, 14:57:35.682
16, -7187.90, -11434.01, 30743.24, 21088.42, -68797.17, -30738.70, -187500.02, -39987.43, 0.000, 0.000, 0.000, 14:57:35.682
17, -7182.08, -11787.71, 30747.80, 21077.34, -68818.41, -30749.32, -187500.02, -40273.39, 0.000, 0.000, 0.000, 14:57:35.682
18, -7202.31, -11620.58, 30725.22, 21095.13, -68787.85, -30750.28, -187500.02, -40240.65, 0.000, 0.000, 0.000, 14:57:35.682
19, -7208.62, -11345.90, 30728.42, 21091.33, -68784.36, -30739.93, -187500.02, -40017.87, 0.000, 0.000, 0.000, 14:57:35.682
20, -7196.90, -11399.08, 30744.60, 21084.47, -68794.91, -30735.30, -187500.02, -39957.30, 0.000, 0.000, 0.000, 14:57:35.682
21, -7184.77, -11744.08, 30757.45, 21070.18, -68820.41, -30742.05, -187500.02, -40226.10, 0.000, 0.000, 0.000, 14:57:35.683
22, -7197.95, -11676.53, 30734.43, 21089.38, -68794.82, -30755.31, -187500.02, -40271.20, 0.006, -0.016, 1.006, 14:57:35.683
23, -7197.51, -11359.98, 30731.81, 21099.46, -68777.74, -30754.79, -187500.02, -40051.26, 0.000, 0.000, 0.000, 14:57:35.683
24, -7188.10, -11356.94, 30743.17, 21095.22, -68781.55, -30739.64, -187500.02, -39944.15, 0.000, 0.000, 0.000, 14:57:35.683
25, -7178.69, -11673.11, 30754.37, 21076.67, -68810.67, -30738.68, -187500.02, -40178.38, 0.000, 0.000, 0.000, 14:57:35.683
26, -7193.19, -11715.96, 30733.92, 21089.90, -68793.99, -30749.09, -187500.02, -40298.38, 0.000, 0.000, 0.000, 14:57:35.683
27, -7196.90, -11375.52, 30731.81, 21102.68, -68774.70, -30751.64, -187500.02, -40093.69, 0.000, 0.000, 0.000, 14:57:35.683
28, -7189.53, -11341.36, 30742.16, 21098.28, -68780.77, -30749.21, -187500.02, -39955.55, 0.000, 0.000, 0.000, 14:57:35.683
29, -7180.21, -11609.76, 30752.24, 21080.78, -68805.35, -30753.12, -187500.02, -40126.61, 0.000, 0.000, 0.000, 14:57:35.685
30, -7191.03, -11774.29, 30737.00, 21080.51, -68803.12, -30767.04, -187500.02, -40324.80, 0.000, 0.000, 0.000, 14:57:35.685
31, -7195.56, -11438.21, 30728.08, 21103.80, -68771.09, -30747.13, -187500.02, -40141.25, 0.004, -0.016, 1.010, 14:57:35.685
32, -7179.13, -11336.33, 30747.01, 21113.66, -68762.93, -30724.17, -187500.02, -39958.23, 0.000, 0.000, 0.000, 14:57:35.685
33, -7183.49, -11516.87, 30747.62, 21091.22, -68794.51, -30741.31, -187500.02, -40054.91, 0.000, 0.000, 0.000, 14:57:35.686
34, -7188.43, -11783.66, 30743.04, 21076.58, -68809.17, -30754.08, -187500.02, -40325.36, 0.000, 0.000, 0.000, 14:57:35.686
35, -7197.44, -11481.96, 30727.61, 21103.53, -68771.38, -30751.66, -187500.02, -40179.61, 0.000, 0.000, 0.000, 14:57:35.686
36, -7190.04, -11320.67, 30737.22, 21109.23, -68767.06, -30747.71, -187500.02, -39973.93, 0.000, 0.000, 0.000, 14:57:35.686
37, -7185.73, -11497.20, 30741.40, 21093.54, -68792.45, -30761.65, -187500.02, -40022.90, 0.000, 0.000, 0.000, 14:57:35.686
38, -7189.37, -11802.28, 30735.55, 21078.28, -68812.80, -30769.70, -187500.02, -40296.44, 0.000, 0.000, 0.000, 14:57:35.686
39, -7193.13, -11549.01, 30727.88, 21108.45, -68770.64, -30751.64, -187500.02, -40204.17, 0.000, 0.000, 0.000, 14:57:35.686
40, -7198.20, -11329.79, 30725.89, 21104.49, -68772.25, -30752.78, -187500.02, -39995.18, 0.000, 0.000, 0.000, 14:57:35.686
41, -7200.19, -11433.27, 30728.71, 21085.43, -68794.27, -30757.32, -187500.02, -39985.21, 0.006, -0.018, 1.012, 14:57:35.687
42, -7193.17, -11778.68, 30734.52, 21074.05, -68816.30, -30763.02, -187500.02, -40268.30, 0.000, 0.000, 0.000, 14:57:35.687
43, -7210.09, -11612.22, 30707.94, 21092.92, -68788.59, -30771.56, -187500.02, -40247.64, 0.000, 0.000, 0.000, 14:57:35.687
44, -7210.47, -11340.18, 30709.46, 21093.18, -68784.07, -30772.90, -187500.02, -40035.15, 0.000, 0.000, 0.000, 14:57:35.687
45, -7195.50, -11384.50, 30732.89, 21092.92, -68789.26, -30760.11, -187500.02, -39964.14, 0.000, 0.000, 0.000, 14:57:35.687
46, -7192.55, -11705.81, 30735.84, 21073.36, -68818.07, -30773.61, -187500.02, -40219.82, 0.000, 0.000, 0.000, 14:57:35.687
47, -7201.64, -11682.83, 30716.28, 21086.70, -68796.03, -30786.15, -187500.02, -40292.30, 0.000, 0.000, 0.000, 14:57:35.687
48, -7209.09, -11377.98, 30711.09, 21088.76, -68784.83, -30779.78, -187500.02, -40078.66, 0.000, 0.000, 0.000, 14:57:35.687
49, -7194.85, -11371.61, 30727.97, 21093.74, -68786.91, -30758.75, -187500.02, -39958.61, 0.000, 0.000, 0.000, 14:57:35.688
50, -7189.28, -11687.39, 30736.29, 21075.08, -68816.55, -30765.70, -187500.02, -40183.52, 0.000, 0.000, 0.000, 14:57:35.688
51, -7217.00, -11740.12, 30708.30, 21074.59, -68809.95, -30785.84, -187500.02, -40319.35, 0.004, -0.016, 1.010, 14:57:35.688
52, -7234.03, -11383.56, 30689.99, 21075.71, -68799.27, -30795.36, -187500.02, -40118.00, 0.000, 0.000, 0.000, 14:57:35.688
53, -7211.28, -11343.49, 30716.10, 21081.03, -68796.01, -30776.50, -187500.02, -39970.48, 0.000, 0.000, 0.000, 14:57:35.688
54, -7204.68, -11601.81, 30728.46, 21062.14, -68824.46, -30779.80, -187500.02, -40129.72, 0.000, 0.000, 0.000, 14:57:35.688
55, -7213.51, -11781.49, 30714.07, 21057.42, -68827.99, -30791.03, -187500.02, -40344.50, 0.000, 0.000, 0.000, 14:57:35.688
56, -7214.67, -11452.03, 30706.45, 21084.20, -68791.88, -30782.49, -187500.02, -40166.44, 0.000, 0.000, 0.000, 14:57:35.689
57, -7207.23, -11320.35, 30719.72, 21085.99, -68790.98, -30773.63, -187500.02, -39973.77, 0.000, 0.000, 0.000, 14:57:35.689
58, -7207.36, -11522.53, 30727.70, 21062.18, -68820.84, -30779.33, -187500.02, -40076.39, 0.000, 0.000, 0.000, 14:57:35.689
59, -7206.34, -11793.12, 30729.20, 21055.66, -68825.96, -30783.67, -187500.02, -40335.87, 0.000, 0.000, 0.000, 14:57:35.689
60, -7224.20, -11492.93, 30706.22, 21076.89, -68794.40, -30787.20, -187500.02, -40203.07, 0.000, 0.000, 0.000, 14:57:35.689
61, -7220.51, -11309.63, 30710.83, 21076.78, -68793.86, -30775.04, -187500.02, -39996.88, 0.008, -0.016, 1.010, 14:57:35.689
62, -7205.31, -11445.93, 30732.60, 21069.63, -68805.69, -30766.55, -187500.02, -40028.53, 0.000, 0.000, 0.000, 14:57:35.689
63, -7203.61, -11772.42, 30733.04, 21059.10, -68824.75, -30784.79, -187500.02, -40320.87, 0.000, 0.000, 0.000, 14:57:35.689
64, -7220.75, -11539.80, 30711.79, 21080.33, -68791.00, -30779.74, -187500.02, -40246.82, 0.000, 0.000, 0.000, 14:57:35.690
65, -7222.34, -11298.31, 30719.07, 21079.37, -68787.00, -30772.65, -187500.02, -40026.45, 0.000, 0.000, 0.000, 14:57:35.690
66, -7202.00, -11388.91, 30741.67, 21080.42, -68793.64, -30768.67, -187500.02, -39997.20, 0.000, 0.000, 0.000, 14:57:35.690
67, -7203.74, -11734.60, 30734.97, 21059.43, -68822.85, -30785.28, -187500.02, -40281.91, 0.000, 0.000, 0.000, 14:57:35.690
68, -7222.88, -11600.04, 30704.68, 21074.23, -68797.08, -30799.38, -187500.02, -40284.55, 0.000, 0.000, 0.000, 14:57:35.690
69, -7223.01, -11306.90, 30708.19, 21078.72, -68784.20, -30784.88, -187500.02, -40058.66, 0.000, 0.000, 0.000, 14:57:35.690
70, -7198.87, -11339.24, 30736.98, 21088.27, -68775.76, -30759.51, -187500.02, -39967.02, 0.000, 0.000, 0.000, 14:57:35.690
71, -7192.32, -11666.89, 30742.41, 21071.57, -68807.59, -30777.10, -187500.02, -40220.15, 0.004, -0.018, 1.008, 14:57:35.690
72, -7202.98, -11666.31, 30724.48, 21086.19, -68789.15, -30788.39, -187500.02, -40309.45, 0.000, 0.000, 0.000, 14:57:35.691
73, -7213.04, -11347.78, 30720.08, 21091.51, -68772.83, -30786.91, -187500.02, -40087.02, 0.000, 0.000, 0.000, 14:57:36.154
74, -7204.10, -11323.71, 30734.81, 21088.58, -68776.38, -30771.29, -187500.02, -39957.03, 0.000, 0.000, 0.000, 14:57:36.154
75, -7202.29, -11622.59, 30741.40, 21065.18, -68808.91, -30768.94, -187500.02, -40172.54, 0.000, 0.000, 0.000, 14:57:36.155
76, -7210.72, -11716.67, 30726.81, 21073.07, -68798.94, -30776.41, -187500.02, -40327.35, 0.000, 0.000, 0.000, 14:57:36.155
77, -7216.46, -11371.47, 30718.81, 21087.51, -68773.95, -30773.28, -187500.02, -40122.70, 0.000, 0.000, 0.000, 14:57:36.155
78, -7203.94, -11307.72, 30734.83, 21086.75, -68777.30, -30766.21, -187500.02, -39967.64, 0.000, 0.000, 0.000, 14:57:36.155
79, -7197.75, -11566.85, 30742.99, 21067.97, -68806.58, -30777.50, -187500.02, -40123.01, 0.000, 0.000, 0.000, 14:57:36.155
80, -7215.25, -11754.54, 30718.09, 21059.01, -68814.72, -30799.74, -187500.02, -40339.80, 0.000, 0.000, 0.000, 14:57:36.155
81, -7223.26, -11424.92, 30708.28, 21079.28, -68784.30, -30798.00, -187500.02, -40172.88, 0.006, -0.022, 1.008, 14:57:36.155
82, -7213.22, -11316.38, 30727.57, 21080.27, -68782.10, -30785.66, -187500.02, -39993.80, 0.000, 0.000, 0.000, 14:57:36.156
83, -7205.24, -11510.01, 30739.08, 21068.22, -68803.02, -30785.64, -187500.02, -40076.36, 0.000, 0.000, 0.000, 14:57:36.156
84, -7204.57, -11787.59, 30734.61, 21063.19, -68813.22, -30797.10, -187500.02, -40342.37, 0.000, 0.000, 0.000, 14:57:36.156
85, -7221.40, -11481.62, 30712.44, 21079.37, -68780.90, -30795.27, -187500.02, -40211.10, 0.000, 0.000, 0.000, 14:57:36.156
86, -7220.89, -11283.43, 30720.97, 21075.73, -68779.51, -30784.36, -187500.02, -39999.96, 0.000, 0.000, 0.000, 14:57:36.156
87, -7215.55, -11406.23, 30732.44, 21062.07, -68801.75, -30787.87, -187500.02, -40021.24, 0.000, 0.000, 0.000, 14:57:36.156
88, -7213.38, -11755.25, 30738.01, 21049.20, -68822.02, -30794.94, -187500.02, -40318.99, 0.000, 0.000, 0.000, 14:57:36.156
89, -7225.34, -11556.68, 30717.04, 21072.64, -68787.18, -30793.15, -187500.02, -40263.96, 0.000, 0.000, 0.000, 14:57:36.157
90, -7218.90, -11320.08, 30722.14, 21080.31, -68776.61, -30780.29, -187500.02, -40044.98, 0.000, 0.000, 0.000, 14:57:36.157
91, -7208.68, -11399.88, 30736.64, 21076.42, -68785.97, -30780.54, -187500.02, -40002.18, 0.006, -0.020, 1.008, 14:57:36.157
92, -7208.42, -11740.14, 30734.50, 21056.82, -68814.89, -30799.18, -187500.02, -40284.93, 0.000, 0.000, 0.000, 14:57:36.157
93, -7216.01, -11637.23, 30725.69, 21077.34, -68784.12, -30798.11, -187500.02, -40306.63, 0.000, 0.000, 0.000, 14:57:36.157
94, -7216.19, -11351.15, 30729.47, 21083.68, -68770.91, -30785.68, -187500.02, -40084.48, 0.000, 0.000, 0.000, 14:57:36.157
95, -7210.87, -11354.60, 30740.20, 21081.99, -68775.55, -30774.15, -187500.02, -39978.08, 0.000, 0.000, 0.000, 14:57:36.157
96, -7207.32, -11671.83, 30748.60, 21058.31, -68809.73, -30786.26, -187500.02, -40228.18, 0.000, 0.000, 0.000, 14:57:36.158
97, -7215.30, -11677.96, 30732.60, 21072.69, -68786.13, -30787.22, -187500.02, -40329.72, 0.000, 0.000, 0.000, 14:57:36.158
98, -7211.59, -11359.36, 30730.18, 21088.22, -68764.67, -30782.22, -187500.02, -40117.09, 0.000, 0.000, 0.000, 14:57:36.158
99, -7201.71, -11333.16, 30742.32, 21088.87, -68768.29, -30775.74, -187500.02, -39979.78, 0.000, 0.000, 0.000, 14:57:36.158
100, -7199.07, -11612.71, 30749.38, 21066.16, -68802.00, -30788.81, -187500.02, -40175.89, 0.000, 0.000, 0.000, 14:57:36.158
101, -7210.58, -11737.26, 30731.70, 21072.73, -68794.51, -30797.64, -187500.02, -40351.02, 0.004, -0.018, 1.014, 14:57:36.158
102, -7224.98, -11389.08, 30713.42, 21079.59, -68777.95, -30798.04, -187500.02, -40161.25, 0.000, 0.000, 0.000, 14:57:36.158
103, -7211.03, -11295.81, 30732.93, 21085.45, -68770.99, -30779.00, -187500.02, -39985.73, 0.000, 0.000, 0.000, 14:57:36.159
104, -7198.54, -11545.37, 30748.11, 21068.04, -68797.70, -30786.89, -187500.02, -40127.48, 0.000, 0.000, 0.000, 14:57:36.159
105, -7216.31, -11763.12, 30725.51, 21057.15, -68806.78, -30816.71, -187500.02, -40362.20, 0.000, 0.000, 0.000, 14:57:36.159
106, -7225.07, -11440.32, 30710.87, 21075.19, -68778.41, -30811.30, -187500.02, -40205.49, 0.000, 0.000, 0.000, 14:57:36.159
107, -7207.32, -11313.31, 30736.73, 21083.77, -68770.44, -30782.82, -187500.02, -40017.31, 0.000, 0.000, 0.000, 14:57:36.159
108, -7193.22, -11490.94, 30756.76, 21077.27, -68784.66, -30778.96, -187500.02, -40078.38, 0.000, 0.000, 0.000, 14:57:36.159
109, -7192.37, -11781.92, 30752.15, 21071.23, -68796.14, -30783.96, -187500.02, -40348.94, 0.000, 0.000, 0.000, 14:57:36.159
110, -7211.70, -11505.38, 30726.90, 21089.09, -68767.40, -30793.93, -187500.02, -40243.69, 0.000, 0.000, 0.000, 14:57:36.160
111, -7216.15, -11287.74, 30726.58, 21085.05, -68768.54, -30797.55, -187500.02, -40028.53, 0.008, -0.016, 1.010, 14:57:36.160
112, -7199.00, -11406.03, 30747.17, 21079.77, -68780.61, -30786.06, -187500.02, -40036.04, 0.000, 0.000, 0.000, 14:57:36.160
113, -7199.76, -11755.63, 30747.93, 21060.39, -68805.08, -30801.08, -187500.02, -40332.09, 0.000, 0.000, 0.000, 14:57:36.160
114, -7215.95, -11566.29, 30723.86, 21080.11, -68775.13, -30803.88, -187500.02, -40290.00, 0.000, 0.000, 0.000, 14:57:36.160
115, -7221.54, -11303.19, 30722.85, 21079.33, -68771.24, -30795.96, -187500.02, -40069.17, 0.000, 0.000, 0.000, 14:57:36.160
116, -7203.79, -11373.46, 30748.24, 21081.81, -68776.20, -30782.35, -187500.02, -40021.07, 0.000, 0.000, 0.000, 14:57:36.160
117, -7197.98, -11720.45, 30758.50, 21063.75, -68802.60, -30796.08, -187500.02, -40298.94, 0.000, 0.000, 0.000, 14:57:36.160
118, -7225.02, -11624.29, 30731.66, 21069.25, -68783.78, -30804.10, -187500.02, -40333.36, 0.000, 0.000, 0.000, 14:57:36.160
119, -7226.79, -11320.17, 30729.18, 21073.94, -68769.72, -30789.50, -187500.02, -40113.04, 0.000, 0.000, 0.000, 14:57:36.160
120, -7211.14, -11346.06, 30745.54, 21074.92, -68772.65, -30780.03, -187500.02, -40014.02, 0.000, 0.000, 0.000, 14:57:36.160
121, -7212.48, -11666.34, 30745.29, 21050.98, -68808.21, -30800.72, -187500.02, -40252.43, 0.008, -0.022, 1.008, 14:57:36.160
122, -7228.46, -11683.61, 30722.65, 21059.99, -68794.45, -30815.34, -187500.02, -40358.80, 0.000, 0.000, 0.000, 14:57:36.160
123, -7240.60, -11354.66, 30711.63, 21066.43, -68778.69, -30817.60, -187500.02, -40148.49, 0.000, 0.000, 0.000, 14:57:36.161
124, -7229.31, -11317.16, 30725.91, 21064.87, -68783.11, -30807.90, -187500.02, -40004.57, 0.000, 0.000, 0.000, 14:57:36.161
125, -7219.10, -11594.88, 30739.41, 21050.69, -68810.49, -30812.93, -187500.02, -40190.98, 0.000, 0.000, 0.000, 14:57:36.161
126, -7225.96, -11736.14, 30729.42, 21054.52, -68803.41, -30811.65, -187500.02, -40386.67, 0.000, 0.000, 0.000, 14:57:36.161
127, -7231.12, -11392.10, 30721.82, 21076.49, -68770.37, -30801.71, -187500.02, -40193.71, 0.000, 0.000, 0.000, 14:57:36.161
128, -7224.96, -11290.51, 30732.33, 21072.31, -68773.07, -30800.99, -187500.02, -40013.04, 0.000, 0.000, 0.000, 14:57:36.161
129, -7214.99, -11522.97, 30747.91, 21051.83, -68803.25, -30813.49, -187500.02, -40146.39, 0.000, 0.000, 0.000, 14:57:36.161
130, -7213.29, -11763.32, 30749.29, 21056.66, -68801.77, -30816.24, -187500.02, -40388.15, 0.000, 0.000, 0.000, 14:57:36.161
131, -7229.87, -11441.34, 30724.39, 21076.26, -68772.00, -30811.12, -187500.02, -40233.50, 0.002, -0.022, 1.006, 14:57:36.161
132, -7224.02, -11295.32, 30737.04, 21072.42, -68771.53, -30796.59, -187500.02, -40039.73, 0.000, 0.000, 0.000, 14:57:36.161
133, -7215.79, -11442.89, 30748.27, 21062.92, -68787.73, -30794.87, -187500.02, -40083.76, 0.000, 0.000, 0.000, 14:57:36.161
134, -7221.83, -11728.99, 30741.16, 21049.96, -68809.58, -30812.97, -187500.02, -40361.71, 0.000, 0.000, 0.000, 14:57:36.161
135, -7234.70, -11471.63, 30722.14, 21071.39, -68775.89, -30814.96, -187500.02, -40269.82, 0.000, 0.000, 0.000, 14:57:36.161
136, -7237.07, -11258.06, 30721.64, 21069.27, -68775.40, -30815.10, -187500.02, -40055.87, 0.000, 0.000, 0.000, 14:57:36.161
137, -7225.56, -11350.68, 30741.45, 21064.60, -68787.58, -30803.18, -187500.02, -40037.67, 0.000, 0.000, 0.000, 14:57:36.161
138, -7225.74, -11684.13, 30745.25, 21043.79, -68812.57, -30815.66, -187500.02, -40333.18, 0.000, 0.000, 0.000, 14:57:36.162
139, -7234.79, -11528.38, 30722.99, 21065.89, -68781.27, -30817.96, -187500.02, -40314.97, 0.000, 0.000, 0.000, 14:57:36.162
140, -7239.37, -11257.43, 30720.73, 21065.47, -68773.34, -30811.01, -187500.02, -40087.43, 0.006, -0.022, 1.004, 14:57:36.162
141, -7235.84, -11280.41, 30730.21, 21058.76, -68785.16, -30811.41, -187500.02, -40008.32, 0.000, 0.000, 0.000, 14:57:36.162
142, -7229.54, -11622.39, 30740.04, 21038.33, -68817.42, -30821.15, -187500.02, -40290.40, 0.000, 0.000, 0.000, 14:57:36.162
143, -7224.49, -11591.48, 30734.79, 21065.04, -68783.29, -30818.29, -187500.02, -40353.46, 0.000, 0.000, 0.000, 14:57:36.162
144, -7231.62, -11302.87, 30725.96, 21070.68, -68769.14, -30823.63, -187500.02, -40133.27, 0.000, 0.000, 0.000, 14:57:36.162
145, -7226.07, -11303.41, 30733.87, 21061.29, -68777.86, -30822.90, -187500.02, -40020.21, 0.000, 0.000, 0.000, 14:57:36.162
146, -7223.44, -11623.24, 30741.96, 21039.85, -68811.34, -30825.94, -187500.02, -40261.26, 0.000, 0.000, 0.000, 14:57:36.162
147, -7233.65, -11672.50, 30732.71, 21051.81, -68793.34, -30815.32, -187500.02, -40390.72, 0.000, 0.000, 0.000, 14:57:36.162
148, -7239.53, -11330.37, 30724.60, 21063.81, -68774.66, -30809.46, -187500.02, -40178.98, 0.000, 0.000, 0.000, 14:57:36.162
149, -7224.20, -11278.78, 30744.51, 21067.72, -68773.39, -30796.46, -187500.02, -40027.10, 0.000, 0.000, 0.000, 14:57:36.162
150, -7220.04, -11549.35, 30749.14, 21049.33, -68806.49, -30816.88, -187500.02, -40205.55, 0.006, -0.022, 1.002, 14:57:36.162
151, -7226.83, -11718.55, 30735.01, 21049.71, -68804.91, -30834.70, -187500.02, -40408.02, 0.000, 0.000, 0.000, 14:57:36.162
152, -7240.49, -11379.79, 30725.27, 21064.93, -68779.55, -30823.30, -187500.02, -40217.74, 0.000, 0.000, 0.000, 14:57:36.162
153, -7230.05, -11256.58, 30740.44, 21066.00, -68778.93, -30808.75, -187500.02, -40028.11, 0.000, 0.000, 0.000, 14:57:36.162
154, -7213.65, -11479.39, 30755.13, 21053.04, -68800.05, -30812.68, -187500.02, -40142.93, 0.000, 0.000, 0.000, 14:57:36.162
155, -7226.48, -11735.87, 30733.45, 21038.82, -68815.14, -30840.18, -187500.02, -40398.47, 0.000, 0.000, 0.000, 14:57:36.163
156, -7236.69, -11445.21, 30716.86, 21057.02, -68785.95, -30839.39, -187500.02, -40260.30, 0.000, 0.000, 0.000, 14:57:36.163
157, -7229.43, -11286.25, 30732.06, 21061.36, -68779.38, -30824.71, -187500.02, -40048.38, 0.000, 0.000, 0.000, 14:57:36.163
158, -7226.85, -11433.14, 30742.63, 21045.80, -68801.55, -30819.75, -187500.02, -40087.92, 0.000, 0.000, 0.000, 14:57:36.163
159, -7229.09, -11758.34, 30743.91, 21033.77, -68818.76, -30828.31, -187500.02, -40375.88, 0.000, 0.000, 0.000, 14:57:36.163
160, -7251.31, -11519.80, 30719.52, 21052.97, -68789.41, -30833.36, -187500.02, -40295.48, 0.006, -0.016, 1.000, 14:57:36.163
161, -7248.83, -11301.40, 30726.00, 21056.46, -68782.66, -30821.33, -187500.02, -40078.13, 0.000, 0.000, 0.000, 14:57:36.163
162, -7231.55, -11405.36, 30743.64, 21054.20, -68790.87, -30813.35, -187500.02, -40055.64, 0.000, 0.000, 0.000, 14:57:36.163
163, -7235.30, -11752.52, 30742.88, 21029.30, -68820.66, -30827.57, -187500.02, -40347.67, 0.000, 0.000, 0.000, 14:57:36.163
164, -7249.43, -11603.55, 30719.92, 21045.53, -68795.85, -30840.80, -187500.02, -40335.84, 0.000, 0.000, 0.000, 14:57:36.163
165, -7251.15, -11343.60, 30720.21, 21046.76, -68788.01, -30832.69, -187500.02, -40119.05, 0.000, 0.000, 0.000, 14:57:36.163
166, -7244.96, -11366.53, 30734.79, 21041.95, -68793.05, -30821.20, -187500.02, -40029.45, 0.000, 0.000, 0.000, 14:57:36.163
167, -7239.08, -11694.07, 30744.64, 21023.98, -68822.94, -30835.24, -187500.02, -40298.54, 0.000, 0.000, 0.000, 14:57:36.163
168, -7247.44, -11661.84, 30726.72, 21041.02, -68801.51, -30848.83, -187500.02, -40375.27, 0.000, 0.000, 0.000, 14:57:36.163
169, -7248.94, -11378.62, 30728.35, 21051.05, -68786.02, -30836.20, -187500.02, -40168.50, 0.000, 0.000, 0.000, 14:57:36.163
170, -7244.49, -11353.21, 30739.79, 21049.67, -68788.54, -30830.14, -187500.02, -40032.55, 0.010, -0.020, 1.006, 14:57:36.164
171, -7242.43, -11636.56, 30741.76, 21020.27, -68825.42, -30841.34, -187500.02, -40251.55, 0.000, 0.000, 0.000, 14:57:36.164
172, -7243.69, -11715.24, 30735.39, 21037.26, -68804.73, -30833.11, -187500.02, -40398.77, 0.000, 0.000, 0.000, 14:57:36.164
173, -7251.55, -11366.22, 30727.43, 21052.15, -68781.52, -30830.25, -187500.02, -40183.43, 0.000, 0.000, 0.000, 14:57:36.164
174, -7239.10, -11305.33, 30741.87, 21051.74, -68783.11, -30812.95, -187500.02, -40024.26, 0.000, 0.000, 0.000, 14:57:36.164
175, -7229.27, -11575.70, 30754.50, 21032.63, -68812.50, -30817.58, -187500.02, -40197.46, 0.000, 0.000, 0.000, 14:57:36.164
176, -7232.69, -11755.81, 30745.52, 21039.27, -68807.16, -30830.54, -187500.02, -40405.16, 0.000, 0.000, 0.000, 14:57:36.164
177, -7251.44, -11425.29, 30723.28, 21048.77, -68786.53, -30838.03, -187500.02, -40226.21, 0.000, 0.000, 0.000, 14:57:36.164
178, -7245.38, -11302.20, 30729.60, 21048.66, -68787.67, -30835.57, -187500.02, -40037.32, 0.000, 0.000, 0.000, 14:57:36.164
179, -7233.11, -11511.21, 30743.86, 21038.38, -68808.63, -30834.32, -187500.02, -40145.36, 0.000, 0.000, 0.000, 14:57:36.164
180, -7235.84, -11780.69, 30741.45, 21033.79, -68812.16, -30837.31, -187500.02, -40408.20, 0.010, -0.018, 1.000, 14:57:36.164
181, -7251.15, -11459.45, 30719.37, 21055.28, -68780.74, -30841.23, -187500.02, -40264.86, 0.000, 0.000, 0.000, 14:57:36.164
182, -7245.68, -11282.65, 30728.24, 21053.96, -68780.54, -30833.76, -187500.02, -40059.67, 0.000, 0.000, 0.000, 14:57:36.164
183, -7233.05, -11443.47, 30745.96, 21044.90, -68797.82, -30833.38, -187500.02, -40095.09, 0.000, 0.000, 0.000, 14:57:36.165
184, -7239.22, -11777.60, 30742.99, 21024.83, -68821.60, -30847.35, -187500.02, -40392.21, 0.000, 0.000, 0.000, 14:57:36.165
